/////////////////////////////////////////////////////////////////////////////////
/// Profile Data Ascii Dump (XRD)                                             ///
/////////////////////////////////////////////////////////////////////////////////

  Group     : Standard
  Data      : 000_2_2
  File Name : 000_2_2.RAW

# Profile Datafile
          comment             =  
          date & time         = 25-07-30 14:24:01 

# Measurement Condition
    X-ray tube
          target              = Cu 
          voltage             = 40.0 (kV)
          current             = 30.0 (mA)
    Slits
          divergence slit     = 1.00000 (deg) 
          scatter slit        = 1.00000 (deg) 
          receiving slit      = 0.30000 (mm)  
    Scanning
          drive axis          = Theta-2Theta 
          scan range          =   10.000 -   70.000 
          scan mode           = Continuous Scan 
          scan speed          =   3.0000 (deg/min) 
          sampling pitch      =   0.0200 (deg) 
          preset time         =   0.40 (sec) 

# Data      [ Total No. = 3001 ]
  <2Theta>   <   I   >
    10.0000       492
    10.0200       544
    10.0400       508
    10.0600       498
    10.0800       502
    10.1000       498
    10.1200       498
    10.1400       492
    10.1600       526
    10.1800       446
    10.2000       468
    10.2200       458
    10.2400       482
    10.2600       466
    10.2800       476
    10.3000       486
    10.3200       508
    10.3400       468
    10.3600       432
    10.3800       464
    10.4000       410
    10.4200       438
    10.4400       462
    10.4600       424
    10.4800       404
    10.5000       406
    10.5200       414
    10.5400       398
    10.5600       438
    10.5800       434
    10.6000       452
    10.6200       440
    10.6400       408
    10.6600       416
    10.6800       458
    10.7000       418
    10.7200       448
    10.7400       418
    10.7600       410
    10.7800       396
    10.8000       402
    10.8200       460
    10.8400       458
    10.8600       448
    10.8800       426
    10.9000       372
    10.9200       454
    10.9400       440
    10.9600       418
    10.9800       424
    11.0000       436
    11.0200       460
    11.0400       398
    11.0600       430
    11.0800       422
    11.1000       436
    11.1200       396
    11.1400       430
    11.1600       388
    11.1800       394
    11.2000       434
    11.2200       406
    11.2400       388
    11.2600       390
    11.2800       394
    11.3000       406
    11.3200       398
    11.3400       426
    11.3600       394
    11.3800       426
    11.4000       390
    11.4200       422
    11.4400       406
    11.4600       388
    11.4800       444
    11.5000       408
    11.5200       416
    11.5400       434
    11.5600       376
    11.5800       446
    11.6000       414
    11.6200       428
    11.6400       378
    11.6600       430
    11.6800       388
    11.7000       384
    11.7200       362
    11.7400       448
    11.7600       426
    11.7800       360
    11.8000       388
    11.8200       376
    11.8400       412
    11.8600       422
    11.8800       372
    11.9000       392
    11.9200       410
    11.9400       418
    11.9600       428
    11.9800       418
    12.0000       424
    12.0200       398
    12.0400       440
    12.0600       402
    12.0800       404
    12.1000       398
    12.1200       400
    12.1400       412
    12.1600       430
    12.1800       434
    12.2000       376
    12.2200       376
    12.2400       420
    12.2600       380
    12.2800       384
    12.3000       388
    12.3200       388
    12.3400       414
    12.3600       396
    12.3800       382
    12.4000       426
    12.4200       398
    12.4400       348
    12.4600       406
    12.4800       388
    12.5000       408
    12.5200       412
    12.5400       418
    12.5600       410
    12.5800       374
    12.6000       384
    12.6200       414
    12.6400       378
    12.6600       370
    12.6800       378
    12.7000       442
    12.7200       432
    12.7400       432
    12.7600       402
    12.7800       384
    12.8000       394
    12.8200       386
    12.8400       388
    12.8600       374
    12.8800       404
    12.9000       414
    12.9200       410
    12.9400       408
    12.9600       416
    12.9800       414
    13.0000       392
    13.0200       434
    13.0400       398
    13.0600       374
    13.0800       404
    13.1000       398
    13.1200       402
    13.1400       438
    13.1600       420
    13.1800       428
    13.2000       382
    13.2200       400
    13.2400       458
    13.2600       450
    13.2800       422
    13.3000       448
    13.3200       398
    13.3400       408
    13.3600       414
    13.3800       382
    13.4000       446
    13.4200       420
    13.4400       404
    13.4600       404
    13.4800       424
    13.5000       390
    13.5200       396
    13.5400       386
    13.5600       380
    13.5800       428
    13.6000       436
    13.6200       444
    13.6400       414
    13.6600       402
    13.6800       358
    13.7000       400
    13.7200       388
    13.7400       418
    13.7600       404
    13.7800       438
    13.8000       386
    13.8200       416
    13.8400       394
    13.8600       420
    13.8800       440
    13.9000       390
    13.9200       406
    13.9400       374
    13.9600       400
    13.9800       396
    14.0000       426
    14.0200       408
    14.0400       418
    14.0600       414
    14.0800       436
    14.1000       432
    14.1200       450
    14.1400       378
    14.1600       466
    14.1800       450
    14.2000       422
    14.2200       442
    14.2400       450
    14.2600       458
    14.2800       444
    14.3000       412
    14.3200       436
    14.3400       418
    14.3600       430
    14.3800       424
    14.4000       434
    14.4200       450
    14.4400       432
    14.4600       368
    14.4800       440
    14.5000       454
    14.5200       488
    14.5400       438
    14.5600       490
    14.5800       418
    14.6000       414
    14.6200       426
    14.6400       430
    14.6600       440
    14.6800       444
    14.7000       472
    14.7200       406
    14.7400       434
    14.7600       450
    14.7800       434
    14.8000       488
    14.8200       446
    14.8400       448
    14.8600       406
    14.8800       398
    14.9000       470
    14.9200       450
    14.9400       446
    14.9600       418
    14.9800       434
    15.0000       470
    15.0200       458
    15.0400       450
    15.0600       448
    15.0800       414
    15.1000       420
    15.1200       452
    15.1400       468
    15.1600       434
    15.1800       418
    15.2000       428
    15.2200       434
    15.2400       474
    15.2600       452
    15.2800       442
    15.3000       470
    15.3200       438
    15.3400       426
    15.3600       450
    15.3800       426
    15.4000       446
    15.4200       480
    15.4400       426
    15.4600       424
    15.4800       434
    15.5000       430
    15.5200       442
    15.5400       486
    15.5600       444
    15.5800       490
    15.6000       462
    15.6200       446
    15.6400       448
    15.6600       464
    15.6800       434
    15.7000       478
    15.7200       434
    15.7400       406
    15.7600       458
    15.7800       456
    15.8000       436
    15.8200       442
    15.8400       456
    15.8600       448
    15.8800       490
    15.9000       476
    15.9200       472
    15.9400       462
    15.9600       440
    15.9800       442
    16.0000       440
    16.0200       418
    16.0400       432
    16.0600       462
    16.0800       426
    16.1000       464
    16.1200       444
    16.1400       446
    16.1600       432
    16.1800       410
    16.2000       436
    16.2200       456
    16.2400       442
    16.2600       438
    16.2800       482
    16.3000       464
    16.3200       470
    16.3400       454
    16.3600       432
    16.3800       442
    16.4000       442
    16.4200       464
    16.4400       470
    16.4600       420
    16.4800       476
    16.5000       470
    16.5200       492
    16.5400       444
    16.5600       444
    16.5800       460
    16.6000       468
    16.6200       476
    16.6400       454
    16.6600       470
    16.6800       508
    16.7000       458
    16.7200       480
    16.7400       494
    16.7600       452
    16.7800       466
    16.8000       458
    16.8200       428
    16.8400       484
    16.8600       472
    16.8800       494
    16.9000       478
    16.9200       512
    16.9400       466
    16.9600       464
    16.9800       462
    17.0000       444
    17.0200       470
    17.0400       480
    17.0600       454
    17.0800       524
    17.1000       456
    17.1200       490
    17.1400       464
    17.1600       492
    17.1800       460
    17.2000       464
    17.2200       436
    17.2400       476
    17.2600       470
    17.2800       486
    17.3000       530
    17.3200       484
    17.3400       492
    17.3600       476
    17.3800       526
    17.4000       458
    17.4200       492
    17.4400       510
    17.4600       484
    17.4800       436
    17.5000       500
    17.5200       524
    17.5400       490
    17.5600       470
    17.5800       492
    17.6000       464
    17.6200       494
    17.6400       454
    17.6600       456
    17.6800       536
    17.7000       482
    17.7200       490
    17.7400       456
    17.7600       488
    17.7800       460
    17.8000       508
    17.8200       474
    17.8400       474
    17.8600       498
    17.8800       526
    17.9000       482
    17.9200       480
    17.9400       494
    17.9600       534
    17.9800       526
    18.0000       492
    18.0200       490
    18.0400       478
    18.0600       462
    18.0800       532
    18.1000       486
    18.1200       514
    18.1400       540
    18.1600       508
    18.1800       492
    18.2000       482
    18.2200       500
    18.2400       496
    18.2600       494
    18.2800       514
    18.3000       476
    18.3200       516
    18.3400       490
    18.3600       540
    18.3800       526
    18.4000       516
    18.4200       538
    18.4400       538
    18.4600       550
    18.4800       528
    18.5000       542
    18.5200       548
    18.5400       488
    18.5600       530
    18.5800       478
    18.6000       490
    18.6200       522
    18.6400       532
    18.6600       502
    18.6800       480
    18.7000       520
    18.7200       488
    18.7400       538
    18.7600       548
    18.7800       484
    18.8000       528
    18.8200       502
    18.8400       530
    18.8600       498
    18.8800       504
    18.9000       514
    18.9200       528
    18.9400       530
    18.9600       504
    18.9800       534
    19.0000       522
    19.0200       518
    19.0400       554
    19.0600       532
    19.0800       506
    19.1000       542
    19.1200       514
    19.1400       496
    19.1600       482
    19.1800       528
    19.2000       592
    19.2200       526
    19.2400       502
    19.2600       538
    19.2800       546
    19.3000       522
    19.3200       556
    19.3400       524
    19.3600       556
    19.3800       510
    19.4000       604
    19.4200       544
    19.4400       558
    19.4600       536
    19.4800       508
    19.5000       510
    19.5200       566
    19.5400       564
    19.5600       542
    19.5800       540
    19.6000       506
    19.6200       550
    19.6400       542
    19.6600       544
    19.6800       530
    19.7000       540
    19.7200       558
    19.7400       608
    19.7600       566
    19.7800       514
    19.8000       560
    19.8200       514
    19.8400       532
    19.8600       548
    19.8800       538
    19.9000       566
    19.9200       558
    19.9400       600
    19.9600       510
    19.9800       554
    20.0000       510
    20.0200       534
    20.0400       572
    20.0600       552
    20.0800       566
    20.1000       564
    20.1200       574
    20.1400       566
    20.1600       532
    20.1800       582
    20.2000       526
    20.2200       556
    20.2400       622
    20.2600       600
    20.2800       544
    20.3000       594
    20.3200       572
    20.3400       580
    20.3600       548
    20.3800       544
    20.4000       558
    20.4200       572
    20.4400       562
    20.4600       550
    20.4800       558
    20.5000       544
    20.5200       584
    20.5400       516
    20.5600       564
    20.5800       578
    20.6000       576
    20.6200       592
    20.6400       578
    20.6600       546
    20.6800       548
    20.7000       580
    20.7200       578
    20.7400       598
    20.7600       588
    20.7800       548
    20.8000       588
    20.8200       588
    20.8400       600
    20.8600       596
    20.8800       586
    20.9000       560
    20.9200       606
    20.9400       526
    20.9600       608
    20.9800       554
    21.0000       534
    21.0200       574
    21.0400       562
    21.0600       550
    21.0800       558
    21.1000       568
    21.1200       536
    21.1400       572
    21.1600       550
    21.1800       602
    21.2000       574
    21.2200       600
    21.2400       580
    21.2600       622
    21.2800       600
    21.3000       564
    21.3200       594
    21.3400       604
    21.3600       566
    21.3800       572
    21.4000       590
    21.4200       590
    21.4400       566
    21.4600       572
    21.4800       578
    21.5000       616
    21.5200       568
    21.5400       580
    21.5600       588
    21.5800       598
    21.6000       612
    21.6200       546
    21.6400       588
    21.6600       614
    21.6800       598
    21.7000       602
    21.7200       572
    21.7400       594
    21.7600       586
    21.7800       558
    21.8000       604
    21.8200       622
    21.8400       588
    21.8600       606
    21.8800       628
    21.9000       546
    21.9200       606
    21.9400       564
    21.9600       568
    21.9800       614
    22.0000       578
    22.0200       580
    22.0400       580
    22.0600       562
    22.0800       580
    22.1000       578
    22.1200       558
    22.1400       540
    22.1600       608
    22.1800       602
    22.2000       582
    22.2200       636
    22.2400       616
    22.2600       608
    22.2800       598
    22.3000       662
    22.3200       614
    22.3400       614
    22.3600       630
    22.3800       604
    22.4000       652
    22.4200       616
    22.4400       630
    22.4600       572
    22.4800       558
    22.5000       586
    22.5200       594
    22.5400       608
    22.5600       634
    22.5800       628
    22.6000       620
    22.6200       600
    22.6400       612
    22.6600       618
    22.6800       598
    22.7000       584
    22.7200       594
    22.7400       646
    22.7600       614
    22.7800       646
    22.8000       612
    22.8200       638
    22.8400       598
    22.8600       652
    22.8800       584
    22.9000       604
    22.9200       612
    22.9400       600
    22.9600       596
    22.9800       590
    23.0000       630
    23.0200       620
    23.0400       640
    23.0600       650
    23.0800       628
    23.1000       580
    23.1200       568
    23.1400       662
    23.1600       652
    23.1800       614
    23.2000       648
    23.2200       638
    23.2400       606
    23.2600       614
    23.2800       618
    23.3000       632
    23.3200       610
    23.3400       640
    23.3600       670
    23.3800       678
    23.4000       638
    23.4200       676
    23.4400       632
    23.4600       612
    23.4800       636
    23.5000       642
    23.5200       672
    23.5400       626
    23.5600       644
    23.5800       618
    23.6000       664
    23.6200       636
    23.6400       644
    23.6600       640
    23.6800       648
    23.7000       616
    23.7200       656
    23.7400       630
    23.7600       644
    23.7800       620
    23.8000       688
    23.8200       654
    23.8400       626
    23.8600       654
    23.8800       704
    23.9000       654
    23.9200       610
    23.9400       640
    23.9600       660
    23.9800       622
    24.0000       632
    24.0200       698
    24.0400       656
    24.0600       566
    24.0800       668
    24.1000       656
    24.1200       612
    24.1400       640
    24.1600       632
    24.1800       622
    24.2000       618
    24.2200       676
    24.2400       644
    24.2600       624
    24.2800       674
    24.3000       648
    24.3200       602
    24.3400       622
    24.3600       676
    24.3800       650
    24.4000       652
    24.4200       646
    24.4400       624
    24.4600       656
    24.4800       652
    24.5000       664
    24.5200       692
    24.5400       676
    24.5600       586
    24.5800       638
    24.6000       706
    24.6200       664
    24.6400       698
    24.6600       612
    24.6800       682
    24.7000       644
    24.7200       570
    24.7400       668
    24.7600       652
    24.7800       720
    24.8000       632
    24.8200       614
    24.8400       656
    24.8600       624
    24.8800       724
    24.9000       674
    24.9200       630
    24.9400       646
    24.9600       704
    24.9800       648
    25.0000       678
    25.0200       648
    25.0400       692
    25.0600       636
    25.0800       676
    25.1000       682
    25.1200       684
    25.1400       634
    25.1600       674
    25.1800       678
    25.2000       688
    25.2200       628
    25.2400       596
    25.2600       636
    25.2800       664
    25.3000       652
    25.3200       654
    25.3400       680
    25.3600       596
    25.3800       586
    25.4000       644
    25.4200       638
    25.4400       672
    25.4600       634
    25.4800       662
    25.5000       656
    25.5200       682
    25.5400       674
    25.5600       676
    25.5800       636
    25.6000       626
    25.6200       622
    25.6400       636
    25.6600       678
    25.6800       644
    25.7000       648
    25.7200       644
    25.7400       688
    25.7600       654
    25.7800       656
    25.8000       684
    25.8200       626
    25.8400       688
    25.8600       652
    25.8800       664
    25.9000       642
    25.9200       650
    25.9400       702
    25.9600       658
    25.9800       702
    26.0000       630
    26.0200       682
    26.0400       678
    26.0600       646
    26.0800       726
    26.1000       720
    26.1200       634
    26.1400       654
    26.1600       684
    26.1800       656
    26.2000       650
    26.2200       666
    26.2400       664
    26.2600       650
    26.2800       644
    26.3000       656
    26.3200       682
    26.3400       628
    26.3600       620
    26.3800       728
    26.4000       632
    26.4200       670
    26.4400       680
    26.4600       656
    26.4800       630
    26.5000       692
    26.5200       620
    26.5400       664
    26.5600       680
    26.5800       646
    26.6000       676
    26.6200       634
    26.6400       720
    26.6600       664
    26.6800       676
    26.7000       632
    26.7200       672
    26.7400       668
    26.7600       630
    26.7800       692
    26.8000       670
    26.8200       662
    26.8400       692
    26.8600       692
    26.8800       652
    26.9000       688
    26.9200       676
    26.9400       658
    26.9600       722
    26.9800       674
    27.0000       650
    27.0200       696
    27.0400       694
    27.0600       684
    27.0800       678
    27.1000       678
    27.1200       680
    27.1400       718
    27.1600       710
    27.1800       620
    27.2000       682
    27.2200       724
    27.2400       678
    27.2600       692
    27.2800       694
    27.3000       614
    27.3200       648
    27.3400       690
    27.3600       646
    27.3800       662
    27.4000       634
    27.4200       640
    27.4400       658
    27.4600       656
    27.4800       704
    27.5000       674
    27.5200       702
    27.5400       700
    27.5600       662
    27.5800       706
    27.6000       658
    27.6200       698
    27.6400       648
    27.6600       680
    27.6800       686
    27.7000       664
    27.7200       680
    27.7400       668
    27.7600       680
    27.7800       738
    27.8000       692
    27.8200       646
    27.8400       648
    27.8600       728
    27.8800       702
    27.9000       718
    27.9200       672
    27.9400       704
    27.9600       666
    27.9800       670
    28.0000       748
    28.0200       722
    28.0400       688
    28.0600       702
    28.0800       738
    28.1000       712
    28.1200       742
    28.1400       704
    28.1600       752
    28.1800       694
    28.2000       764
    28.2200       704
    28.2400       742
    28.2600       756
    28.2800       758
    28.3000       834
    28.3200       720
    28.3400       858
    28.3600       874
    28.3800       864
    28.4000       934
    28.4200      1012
    28.4400       958
    28.4600      1068
    28.4800      1066
    28.5000      1076
    28.5200      1164
    28.5400      1214
    28.5600      1238
    28.5800      1278
    28.6000      1254
    28.6200      1258
    28.6400      1242
    28.6600      1208
    28.6800      1178
    28.7000      1156
    28.7200      1092
    28.7400      1090
    28.7600      1034
    28.7800      1016
    28.8000       950
    28.8200       892
    28.8400       870
    28.8600       860
    28.8800       894
    28.9000       878
    28.9200       792
    28.9400       828
    28.9600       752
    28.9800       834
    29.0000       798
    29.0200       734
    29.0400       714
    29.0600       716
    29.0800       736
    29.1000       760
    29.1200       742
    29.1400       790
    29.1600       744
    29.1800       664
    29.2000       708
    29.2200       736
    29.2400       736
    29.2600       756
    29.2800       764
    29.3000       698
    29.3200       696
    29.3400       754
    29.3600       778
    29.3800       734
    29.4000       716
    29.4200       712
    29.4400       702
    29.4600       702
    29.4800       716
    29.5000       726
    29.5200       748
    29.5400       670
    29.5600       688
    29.5800       728
    29.6000       666
    29.6200       694
    29.6400       676
    29.6600       696
    29.6800       708
    29.7000       686
    29.7200       682
    29.7400       706
    29.7600       716
    29.7800       694
    29.8000       714
    29.8200       696
    29.8400       736
    29.8600       746
    29.8800       676
    29.9000       736
    29.9200       724
    29.9400       722
    29.9600       686
    29.9800       670
    30.0000       682
    30.0200       682
    30.0400       676
    30.0600       634
    30.0800       704
    30.1000       674
    30.1200       650
    30.1400       708
    30.1600       700
    30.1800       664
    30.2000       758
    30.2200       698
    30.2400       664
    30.2600       684
    30.2800       700
    30.3000       704
    30.3200       692
    30.3400       720
    30.3600       662
    30.3800       644
    30.4000       686
    30.4200       730
    30.4400       680
    30.4600       680
    30.4800       674
    30.5000       724
    30.5200       734
    30.5400       680
    30.5600       672
    30.5800       696
    30.6000       706
    30.6200       746
    30.6400       714
    30.6600       720
    30.6800       700
    30.7000       640
    30.7200       708
    30.7400       656
    30.7600       670
    30.7800       686
    30.8000       726
    30.8200       686
    30.8400       716
    30.8600       698
    30.8800       676
    30.9000       694
    30.9200       724
    30.9400       648
    30.9600       680
    30.9800       620
    31.0000       700
    31.0200       680
    31.0400       672
    31.0600       660
    31.0800       672
    31.1000       684
    31.1200       708
    31.1400       700
    31.1600       704
    31.1800       716
    31.2000       648
    31.2200       738
    31.2400       684
    31.2600       684
    31.2800       674
    31.3000       708
    31.3200       680
    31.3400       666
    31.3600       682
    31.3800       658
    31.4000       666
    31.4200       724
    31.4400       722
    31.4600       722
    31.4800       668
    31.5000       698
    31.5200       688
    31.5400       688
    31.5600       716
    31.5800       670
    31.6000       678
    31.6200       682
    31.6400       668
    31.6600       674
    31.6800       664
    31.7000       644
    31.7200       678
    31.7400       688
    31.7600       696
    31.7800       692
    31.8000       672
    31.8200       714
    31.8400       678
    31.8600       694
    31.8800       662
    31.9000       692
    31.9200       696
    31.9400       646
    31.9600       694
    31.9800       686
    32.0000       682
    32.0200       646
    32.0400       722
    32.0600       692
    32.0800       674
    32.1000       648
    32.1200       682
    32.1400       648
    32.1600       686
    32.1800       690
    32.2000       694
    32.2200       698
    32.2400       724
    32.2600       664
    32.2800       652
    32.3000       702
    32.3200       718
    32.3400       708
    32.3600       626
    32.3800       674
    32.4000       722
    32.4200       688
    32.4400       672
    32.4600       682
    32.4800       678
    32.5000       666
    32.5200       668
    32.5400       678
    32.5600       704
    32.5800       672
    32.6000       650
    32.6200       660
    32.6400       664
    32.6600       608
    32.6800       684
    32.7000       692
    32.7200       672
    32.7400       674
    32.7600       630
    32.7800       680
    32.8000       666
    32.8200       730
    32.8400       714
    32.8600       628
    32.8800       724
    32.9000       692
    32.9200       684
    32.9400       708
    32.9600       646
    32.9800       702
    33.0000       724
    33.0200       660
    33.0400       694
    33.0600       670
    33.0800       718
    33.1000       692
    33.1200       604
    33.1400       670
    33.1600       714
    33.1800       678
    33.2000       666
    33.2200       674
    33.2400       664
    33.2600       648
    33.2800       680
    33.3000       678
    33.3200       652
    33.3400       650
    33.3600       718
    33.3800       662
    33.4000       700
    33.4200       712
    33.4400       704
    33.4600       722
    33.4800       752
    33.5000       666
    33.5200       722
    33.5400       676
    33.5600       696
    33.5800       626
    33.6000       672
    33.6200       660
    33.6400       652
    33.6600       704
    33.6800       626
    33.7000       682
    33.7200       678
    33.7400       732
    33.7600       700
    33.7800       686
    33.8000       690
    33.8200       660
    33.8400       676
    33.8600       684
    33.8800       718
    33.9000       638
    33.9200       706
    33.9400       720
    33.9600       666
    33.9800       662
    34.0000       682
    34.0200       678
    34.0400       712
    34.0600       692
    34.0800       624
    34.1000       686
    34.1200       688
    34.1400       702
    34.1600       650
    34.1800       680
    34.2000       682
    34.2200       700
    34.2400       702
    34.2600       748
    34.2800       686
    34.3000       702
    34.3200       696
    34.3400       664
    34.3600       652
    34.3800       738
    34.4000       712
    34.4200       638
    34.4400       648
    34.4600       676
    34.4800       694
    34.5000       708
    34.5200       694
    34.5400       684
    34.5600       686
    34.5800       690
    34.6000       704
    34.6200       690
    34.6400       754
    34.6600       700
    34.6800       694
    34.7000       690
    34.7200       672
    34.7400       664
    34.7600       664
    34.7800       702
    34.8000       636
    34.8200       630
    34.8400       682
    34.8600       686
    34.8800       640
    34.9000       694
    34.9200       674
    34.9400       710
    34.9600       746
    34.9800       686
    35.0000       686
    35.0200       732
    35.0400       662
    35.0600       654
    35.0800       672
    35.1000       664
    35.1200       662
    35.1400       680
    35.1600       756
    35.1800       720
    35.2000       662
    35.2200       694
    35.2400       700
    35.2600       602
    35.2800       682
    35.3000       694
    35.3200       696
    35.3400       676
    35.3600       702
    35.3800       734
    35.4000       638
    35.4200       674
    35.4400       708
    35.4600       690
    35.4800       674
    35.5000       678
    35.5200       696
    35.5400       678
    35.5600       664
    35.5800       656
    35.6000       710
    35.6200       694
    35.6400       646
    35.6600       726
    35.6800       710
    35.7000       718
    35.7200       662
    35.7400       718
    35.7600       720
    35.7800       676
    35.8000       732
    35.8200       662
    35.8400       686
    35.8600       658
    35.8800       648
    35.9000       648
    35.9200       648
    35.9400       686
    35.9600       688
    35.9800       694
    36.0000       690
    36.0200       688
    36.0400       694
    36.0600       690
    36.0800       640
    36.1000       676
    36.1200       644
    36.1400       630
    36.1600       702
    36.1800       704
    36.2000       732
    36.2200       696
    36.2400       722
    36.2600       670
    36.2800       620
    36.3000       664
    36.3200       660
    36.3400       684
    36.3600       680
    36.3800       682
    36.4000       742
    36.4200       680
    36.4400       644
    36.4600       722
    36.4800       698
    36.5000       698
    36.5200       656
    36.5400       664
    36.5600       654
    36.5800       680
    36.6000       750
    36.6200       658
    36.6400       726
    36.6600       700
    36.6800       716
    36.7000       684
    36.7200       688
    36.7400       744
    36.7600       698
    36.7800       674
    36.8000       674
    36.8200       672
    36.8400       658
    36.8600       718
    36.8800       736
    36.9000       728
    36.9200       712
    36.9400       700
    36.9600       654
    36.9800       696
    37.0000       674
    37.0200       756
    37.0400       726
    37.0600       694
    37.0800       692
    37.1000       728
    37.1200       740
    37.1400       762
    37.1600       758
    37.1800       808
    37.2000       774
    37.2200       810
    37.2400       830
    37.2600       914
    37.2800       970
    37.3000       958
    37.3200      1048
    37.3400      1096
    37.3600       932
    37.3800       978
    37.4000       980
    37.4200       960
    37.4400       898
    37.4600       800
    37.4800       818
    37.5000       800
    37.5200       774
    37.5400       792
    37.5600       724
    37.5800       720
    37.6000       714
    37.6200       742
    37.6400       742
    37.6600       746
    37.6800       730
    37.7000       724
    37.7200       676
    37.7400       674
    37.7600       718
    37.7800       690
    37.8000       704
    37.8200       684
    37.8400       676
    37.8600       718
    37.8800       708
    37.9000       706
    37.9200       688
    37.9400       742
    37.9600       678
    37.9800       702
    38.0000       662
    38.0200       664
    38.0400       734
    38.0600       726
    38.0800       696
    38.1000       698
    38.1200       714
    38.1400       686
    38.1600       694
    38.1800       698
    38.2000       690
    38.2200       668
    38.2400       682
    38.2600       722
    38.2800       684
    38.3000       692
    38.3200       714
    38.3400       702
    38.3600       698
    38.3800       712
    38.4000       708
    38.4200       636
    38.4400       704
    38.4600       718
    38.4800       684
    38.5000       708
    38.5200       688
    38.5400       696
    38.5600       668
    38.5800       726
    38.6000       716
    38.6200       728
    38.6400       672
    38.6600       682
    38.6800       682
    38.7000       658
    38.7200       680
    38.7400       710
    38.7600       728
    38.7800       724
    38.8000       686
    38.8200       704
    38.8400       716
    38.8600       680
    38.8800       682
    38.9000       750
    38.9200       680
    38.9400       690
    38.9600       720
    38.9800       694
    39.0000       658
    39.0200       690
    39.0400       690
    39.0600       678
    39.0800       714
    39.1000       674
    39.1200       702
    39.1400       730
    39.1600       678
    39.1800       696
    39.2000       694
    39.2200       718
    39.2400       696
    39.2600       686
    39.2800       734
    39.3000       660
    39.3200       730
    39.3400       704
    39.3600       674
    39.3800       690
    39.4000       696
    39.4200       676
    39.4400       666
    39.4600       692
    39.4800       740
    39.5000       748
    39.5200       718
    39.5400       716
    39.5600       738
    39.5800       672
    39.6000       688
    39.6200       728
    39.6400       696
    39.6600       690
    39.6800       712
    39.7000       644
    39.7200       718
    39.7400       720
    39.7600       756
    39.7800       684
    39.8000       662
    39.8200       650
    39.8400       716
    39.8600       704
    39.8800       704
    39.9000       676
    39.9200       738
    39.9400       724
    39.9600       682
    39.9800       702
    40.0000       724
    40.0200       634
    40.0400       708
    40.0600       718
    40.0800       704
    40.1000       712
    40.1200       738
    40.1400       720
    40.1600       724
    40.1800       684
    40.2000       694
    40.2200       686
    40.2400       728
    40.2600       708
    40.2800       730
    40.3000       676
    40.3200       708
    40.3400       716
    40.3600       696
    40.3800       698
    40.4000       688
    40.4200       748
    40.4400       690
    40.4600       776
    40.4800       738
    40.5000       756
    40.5200       710
    40.5400       766
    40.5600       760
    40.5800       768
    40.6000       706
    40.6200       736
    40.6400       660
    40.6600       710
    40.6800       772
    40.7000       736
    40.7200       752
    40.7400       746
    40.7600       766
    40.7800       740
    40.8000       782
    40.8200       742
    40.8400       762
    40.8600       748
    40.8800       836
    40.9000       742
    40.9200       750
    40.9400       768
    40.9600       806
    40.9800       718
    41.0000       780
    41.0200       814
    41.0400       768
    41.0600       742
    41.0800       730
    41.1000       730
    41.1200       706
    41.1400       712
    41.1600       756
    41.1800       738
    41.2000       760
    41.2200       692
    41.2400       734
    41.2600       726
    41.2800       704
    41.3000       704
    41.3200       746
    41.3400       752
    41.3600       700
    41.3800       682
    41.4000       700
    41.4200       692
    41.4400       746
    41.4600       734
    41.4800       738
    41.5000       722
    41.5200       716
    41.5400       736
    41.5600       674
    41.5800       712
    41.6000       706
    41.6200       768
    41.6400       720
    41.6600       768
    41.6800       786
    41.7000       746
    41.7200       682
    41.7400       708
    41.7600       718
    41.7800       792
    41.8000       694
    41.8200       728
    41.8400       698
    41.8600       726
    41.8800       730
    41.9000       710
    41.9200       684
    41.9400       680
    41.9600       712
    41.9800       704
    42.0000       784
    42.0200       726
    42.0400       732
    42.0600       728
    42.0800       718
    42.1000       706
    42.1200       712
    42.1400       764
    42.1600       744
    42.1800       774
    42.2000       698
    42.2200       710
    42.2400       716
    42.2600       722
    42.2800       702
    42.3000       726
    42.3200       734
    42.3400       690
    42.3600       746
    42.3800       730
    42.4000       736
    42.4200       718
    42.4400       790
    42.4600       746
    42.4800       704
    42.5000       698
    42.5200       770
    42.5400       774
    42.5600       714
    42.5800       762
    42.6000       778
    42.6200       772
    42.6400       760
    42.6600       812
    42.6800       798
    42.7000       826
    42.7200       844
    42.7400       886
    42.7600       854
    42.7800       842
    42.8000       846
    42.8200       824
    42.8400       820
    42.8600       790
    42.8800       782
    42.9000       738
    42.9200       738
    42.9400       790
    42.9600       720
    42.9800       742
    43.0000       762
    43.0200       722
    43.0400       732
    43.0600       690
    43.0800       790
    43.1000       752
    43.1200       760
    43.1400       750
    43.1600       722
    43.1800       718
    43.2000       746
    43.2200       742
    43.2400       726
    43.2600       698
    43.2800       726
    43.3000       774
    43.3200       716
    43.3400       760
    43.3600       782
    43.3800       744
    43.4000       760
    43.4200       734
    43.4400       694
    43.4600       732
    43.4800       694
    43.5000       772
    43.5200       694
    43.5400       670
    43.5600       712
    43.5800       736
    43.6000       668
    43.6200       732
    43.6400       708
    43.6600       746
    43.6800       770
    43.7000       746
    43.7200       746
    43.7400       708
    43.7600       700
    43.7800       708
    43.8000       782
    43.8200       756
    43.8400       734
    43.8600       722
    43.8800       706
    43.9000       698
    43.9200       744
    43.9400       734
    43.9600       756
    43.9800       726
    44.0000       766
    44.0200       740
    44.0400       784
    44.0600       700
    44.0800       730
    44.1000       768
    44.1200       722
    44.1400       720
    44.1600       780
    44.1800       726
    44.2000       760
    44.2200       758
    44.2400       704
    44.2600       718
    44.2800       710
    44.3000       736
    44.3200       754
    44.3400       742
    44.3600       742
    44.3800       778
    44.4000       702
    44.4200       744
    44.4400       738
    44.4600       776
    44.4800       720
    44.5000       714
    44.5200       756
    44.5400       758
    44.5600       724
    44.5800       752
    44.6000       730
    44.6200       730
    44.6400       778
    44.6600       776
    44.6800       718
    44.7000       730
    44.7200       760
    44.7400       718
    44.7600       744
    44.7800       788
    44.8000       728
    44.8200       814
    44.8400       736
    44.8600       746
    44.8800       748
    44.9000       758
    44.9200       764
    44.9400       786
    44.9600       710
    44.9800       704
    45.0000       736
    45.0200       780
    45.0400       792
    45.0600       718
    45.0800       742
    45.1000       756
    45.1200       788
    45.1400       780
    45.1600       762
    45.1800       726
    45.2000       718
    45.2200       748
    45.2400       728
    45.2600       740
    45.2800       734
    45.3000       756
    45.3200       750
    45.3400       776
    45.3600       792
    45.3800       740
    45.4000       738
    45.4200       754
    45.4400       754
    45.4600       756
    45.4800       728
    45.5000       758
    45.5200       768
    45.5400       700
    45.5600       788
    45.5800       768
    45.6000       708
    45.6200       782
    45.6400       764
    45.6600       736
    45.6800       776
    45.7000       748
    45.7200       762
    45.7400       774
    45.7600       764
    45.7800       786
    45.8000       730
    45.8200       774
    45.8400       714
    45.8600       768
    45.8800       806
    45.9000       800
    45.9200       774
    45.9400       694
    45.9600       826
    45.9800       740
    46.0000       760
    46.0200       766
    46.0400       796
    46.0600       772
    46.0800       758
    46.1000       766
    46.1200       768
    46.1400       736
    46.1600       770
    46.1800       732
    46.2000       750
    46.2200       806
    46.2400       808
    46.2600       788
    46.2800       762
    46.3000       822
    46.3200       758
    46.3400       794
    46.3600       728
    46.3800       752
    46.4000       736
    46.4200       738
    46.4400       752
    46.4600       744
    46.4800       764
    46.5000       782
    46.5200       760
    46.5400       730
    46.5600       770
    46.5800       754
    46.6000       776
    46.6200       756
    46.6400       776
    46.6600       732
    46.6800       764
    46.7000       726
    46.7200       784
    46.7400       770
    46.7600       784
    46.7800       804
    46.8000       742
    46.8200       774
    46.8400       744
    46.8600       708
    46.8800       766
    46.9000       736
    46.9200       796
    46.9400       734
    46.9600       752
    46.9800       776
    47.0000       780
    47.0200       720
    47.0400       808
    47.0600       734
    47.0800       766
    47.1000       738
    47.1200       742
    47.1400       784
    47.1600       758
    47.1800       818
    47.2000       786
    47.2200       770
    47.2400       746
    47.2600       742
    47.2800       768
    47.3000       758
    47.3200       762
    47.3400       774
    47.3600       758
    47.3800       750
    47.4000       788
    47.4200       698
    47.4400       744
    47.4600       706
    47.4800       742
    47.5000       722
    47.5200       728
    47.5400       802
    47.5600       800
    47.5800       750
    47.6000       816
    47.6200       730
    47.6400       772
    47.6600       734
    47.6800       822
    47.7000       788
    47.7200       800
    47.7400       778
    47.7600       820
    47.7800       760
    47.8000       772
    47.8200       752
    47.8400       794
    47.8600       762
    47.8800       780
    47.9000       742
    47.9200       762
    47.9400       752
    47.9600       766
    47.9800       758
    48.0000       764
    48.0200       804
    48.0400       800
    48.0600       790
    48.0800       818
    48.1000       774
    48.1200       742
    48.1400       738
    48.1600       798
    48.1800       776
    48.2000       750
    48.2200       728
    48.2400       738
    48.2600       750
    48.2800       776
    48.3000       768
    48.3200       802
    48.3400       754
    48.3600       758
    48.3800       738
    48.4000       736
    48.4200       772
    48.4400       730
    48.4600       832
    48.4800       730
    48.5000       818
    48.5200       766
    48.5400       800
    48.5600       792
    48.5800       738
    48.6000       754
    48.6200       764
    48.6400       786
    48.6600       740
    48.6800       764
    48.7000       752
    48.7200       740
    48.7400       742
    48.7600       752
    48.7800       756
    48.8000       784
    48.8200       754
    48.8400       806
    48.8600       756
    48.8800       798
    48.9000       788
    48.9200       760
    48.9400       802
    48.9600       764
    48.9800       776
    49.0000       770
    49.0200       724
    49.0400       680
    49.0600       734
    49.0800       806
    49.1000       772
    49.1200       766
    49.1400       792
    49.1600       718
    49.1800       752
    49.2000       758
    49.2200       792
    49.2400       766
    49.2600       826
    49.2800       730
    49.3000       716
    49.3200       790
    49.3400       752
    49.3600       742
    49.3800       744
    49.4000       786
    49.4200       736
    49.4400       772
    49.4600       722
    49.4800       764
    49.5000       756
    49.5200       718
    49.5400       764
    49.5600       750
    49.5800       770
    49.6000       788
    49.6200       756
    49.6400       734
    49.6600       810
    49.6800       732
    49.7000       746
    49.7200       744
    49.7400       766
    49.7600       770
    49.7800       732
    49.8000       796
    49.8200       772
    49.8400       758
    49.8600       758
    49.8800       824
    49.9000       770
    49.9200       792
    49.9400       738
    49.9600       810
    49.9800       788
    50.0000       742
    50.0200       736
    50.0400       756
    50.0600       748
    50.0800       782
    50.1000       778
    50.1200       754
    50.1400       756
    50.1600       760
    50.1800       734
    50.2000       750
    50.2200       746
    50.2400       816
    50.2600       802
    50.2800       780
    50.3000       748
    50.3200       774
    50.3400       770
    50.3600       748
    50.3800       764
    50.4000       736
    50.4200       786
    50.4400       754
    50.4600       782
    50.4800       728
    50.5000       774
    50.5200       776
    50.5400       790
    50.5600       770
    50.5800       774
    50.6000       766
    50.6200       774
    50.6400       772
    50.6600       798
    50.6800       784
    50.7000       764
    50.7200       778
    50.7400       770
    50.7600       784
    50.7800       772
    50.8000       790
    50.8200       800
    50.8400       750
    50.8600       826
    50.8800       746
    50.9000       766
    50.9200       740
    50.9400       788
    50.9600       748
    50.9800       746
    51.0000       782
    51.0200       728
    51.0400       770
    51.0600       798
    51.0800       800
    51.1000       762
    51.1200       720
    51.1400       818
    51.1600       830
    51.1800       772
    51.2000       758
    51.2200       802
    51.2400       750
    51.2600       824
    51.2800       766
    51.3000       786
    51.3200       794
    51.3400       780
    51.3600       802
    51.3800       772
    51.4000       804
    51.4200       800
    51.4400       808
    51.4600       854
    51.4800       840
    51.5000       766
    51.5200       778
    51.5400       754
    51.5600       812
    51.5800       804
    51.6000       782
    51.6200       768
    51.6400       790
    51.6600       784
    51.6800       754
    51.7000       810
    51.7200       758
    51.7400       716
    51.7600       716
    51.7800       760
    51.8000       778
    51.8200       766
    51.8400       782
    51.8600       788
    51.8800       802
    51.9000       764
    51.9200       760
    51.9400       772
    51.9600       738
    51.9800       774
    52.0000       804
    52.0200       752
    52.0400       758
    52.0600       806
    52.0800       782
    52.1000       712
    52.1200       766
    52.1400       828
    52.1600       776
    52.1800       844
    52.2000       776
    52.2200       794
    52.2400       760
    52.2600       784
    52.2800       796
    52.3000       780
    52.3200       750
    52.3400       766
    52.3600       760
    52.3800       810
    52.4000       810
    52.4200       754
    52.4400       688
    52.4600       804
    52.4800       764
    52.5000       808
    52.5200       770
    52.5400       832
    52.5600       760
    52.5800       786
    52.6000       784
    52.6200       808
    52.6400       756
    52.6600       742
    52.6800       804
    52.7000       782
    52.7200       838
    52.7400       764
    52.7600       790
    52.7800       782
    52.8000       784
    52.8200       832
    52.8400       762
    52.8600       764
    52.8800       782
    52.9000       806
    52.9200       750
    52.9400       760
    52.9600       812
    52.9800       776
    53.0000       824
    53.0200       798
    53.0400       784
    53.0600       788
    53.0800       784
    53.1000       804
    53.1200       822
    53.1400       780
    53.1600       750
    53.1800       770
    53.2000       804
    53.2200       794
    53.2400       784
    53.2600       828
    53.2800       802
    53.3000       826
    53.3200       798
    53.3400       800
    53.3600       820
    53.3800       814
    53.4000       784
    53.4200       768
    53.4400       746
    53.4600       804
    53.4800       762
    53.5000       802
    53.5200       796
    53.5400       744
    53.5600       780
    53.5800       824
    53.6000       756
    53.6200       766
    53.6400       798
    53.6600       770
    53.6800       826
    53.7000       786
    53.7200       828
    53.7400       826
    53.7600       716
    53.7800       792
    53.8000       796
    53.8200       776
    53.8400       794
    53.8600       776
    53.8800       782
    53.9000       800
    53.9200       790
    53.9400       774
    53.9600       794
    53.9800       762
    54.0000       776
    54.0200       770
    54.0400       784
    54.0600       758
    54.0800       806
    54.1000       786
    54.1200       764
    54.1400       760
    54.1600       766
    54.1800       774
    54.2000       808
    54.2200       776
    54.2400       750
    54.2600       812
    54.2800       836
    54.3000       798
    54.3200       804
    54.3400       780
    54.3600       796
    54.3800       832
    54.4000       824
    54.4200       782
    54.4400       866
    54.4600       820
    54.4800       776
    54.5000       750
    54.5200       788
    54.5400       820
    54.5600       790
    54.5800       778
    54.6000       766
    54.6200       826
    54.6400       794
    54.6600       844
    54.6800       838
    54.7000       832
    54.7200       788
    54.7400       778
    54.7600       800
    54.7800       780
    54.8000       754
    54.8200       798
    54.8400       862
    54.8600       794
    54.8800       822
    54.9000       792
    54.9200       818
    54.9400       832
    54.9600       790
    54.9800       754
    55.0000       800
    55.0200       820
    55.0400       802
    55.0600       840
    55.0800       810
    55.1000       862
    55.1200       820
    55.1400       812
    55.1600       792
    55.1800       796
    55.2000       790
    55.2200       786
    55.2400       796
    55.2600       858
    55.2800       768
    55.3000       782
    55.3200       804
    55.3400       780
    55.3600       830
    55.3800       800
    55.4000       800
    55.4200       766
    55.4400       770
    55.4600       836
    55.4800       796
    55.5000       820
    55.5200       800
    55.5400       808
    55.5600       766
    55.5800       856
    55.6000       802
    55.6200       800
    55.6400       874
    55.6600       778
    55.6800       826
    55.7000       802
    55.7200       826
    55.7400       860
    55.7600       852
    55.7800       816
    55.8000       802
    55.8200       830
    55.8400       736
    55.8600       766
    55.8800       826
    55.9000       864
    55.9200       814
    55.9400       788
    55.9600       846
    55.9800       786
    56.0000       826
    56.0200       864
    56.0400       830
    56.0600       824
    56.0800       824
    56.1000       786
    56.1200       796
    56.1400       816
    56.1600       820
    56.1800       866
    56.2000       866
    56.2200       810
    56.2400       854
    56.2600       836
    56.2800       864
    56.3000       904
    56.3200       988
    56.3400       890
    56.3600       936
    56.3800       914
    56.4000       946
    56.4200      1028
    56.4400       994
    56.4600       996
    56.4800      1088
    56.5000      1072
    56.5200      1060
    56.5400      1102
    56.5600      1124
    56.5800      1130
    56.6000      1128
    56.6200      1080
    56.6400      1130
    56.6600      1168
    56.6800      1084
    56.7000      1118
    56.7200      1106
    56.7400      1046
    56.7600       990
    56.7800      1040
    56.8000      1002
    56.8200      1008
    56.8400       972
    56.8600      1000
    56.8800       948
    56.9000       936
    56.9200       896
    56.9400       946
    56.9600       912
    56.9800       926
    57.0000       864
    57.0200       882
    57.0400       878
    57.0600       866
    57.0800       914
    57.1000       850
    57.1200       862
    57.1400       892
    57.1600       870
    57.1800       784
    57.2000       820
    57.2200       812
    57.2400       800
    57.2600       882
    57.2800       796
    57.3000       834
    57.3200       832
    57.3400       838
    57.3600       824
    57.3800       836
    57.4000       872
    57.4200       840
    57.4400       868
    57.4600       824
    57.4800       844
    57.5000       834
    57.5200       816
    57.5400       828
    57.5600       840
    57.5800       822
    57.6000       838
    57.6200       824
    57.6400       850
    57.6600       820
    57.6800       788
    57.7000       866
    57.7200       864
    57.7400       860
    57.7600       842
    57.7800       828
    57.8000       848
    57.8200       836
    57.8400       810
    57.8600       836
    57.8800       818
    57.9000       842
    57.9200       810
    57.9400       804
    57.9600       804
    57.9800       788
    58.0000       820
    58.0200       824
    58.0400       784
    58.0600       816
    58.0800       804
    58.1000       824
    58.1200       782
    58.1400       876
    58.1600       804
    58.1800       856
    58.2000       824
    58.2200       798
    58.2400       850
    58.2600       860
    58.2800       896
    58.3000       848
    58.3200       860
    58.3400       832
    58.3600       838
    58.3800       824
    58.4000       830
    58.4200       838
    58.4400       848
    58.4600       822
    58.4800       810
    58.5000       862
    58.5200       842
    58.5400       838
    58.5600       774
    58.5800       780
    58.6000       822
    58.6200       830
    58.6400       912
    58.6600       824
    58.6800       824
    58.7000       838
    58.7200       866
    58.7400       844
    58.7600       810
    58.7800       916
    58.8000       852
    58.8200       816
    58.8400       842
    58.8600       806
    58.8800       902
    58.9000       874
    58.9200       958
    58.9400       856
    58.9600       884
    58.9800       864
    59.0000       878
    59.0200       894
    59.0400       874
    59.0600       870
    59.0800       912
    59.1000       888
    59.1200       936
    59.1400       914
    59.1600       938
    59.1800       860
    59.2000       900
    59.2200       938
    59.2400       916
    59.2600       880
    59.2800       930
    59.3000       918
    59.3200       870
    59.3400       860
    59.3600       896
    59.3800       902
    59.4000       856
    59.4200       866
    59.4400       866
    59.4600       852
    59.4800       862
    59.5000       856
    59.5200       858
    59.5400       880
    59.5600       946
    59.5800       884
    59.6000       860
    59.6200       826
    59.6400       886
    59.6600       808
    59.6800       818
    59.7000       826
    59.7200       834
    59.7400       796
    59.7600       832
    59.7800       862
    59.8000       850
    59.8200       878
    59.8400       826
    59.8600       796
    59.8800       790
    59.9000       764
    59.9200       832
    59.9400       826
    59.9600       862
    59.9800       890
    60.0000       874
    60.0200       822
    60.0400       816
    60.0600       854
    60.0800       824
    60.1000       816
    60.1200       812
    60.1400       816
    60.1600       820
    60.1800       864
    60.2000       842
    60.2200       830
    60.2400       800
    60.2600       842
    60.2800       862
    60.3000       822
    60.3200       802
    60.3400       806
    60.3600       806
    60.3800       802
    60.4000       846
    60.4200       842
    60.4400       810
    60.4600       868
    60.4800       824
    60.5000       788
    60.5200       784
    60.5400       796
    60.5600       844
    60.5800       826
    60.6000       812
    60.6200       826
    60.6400       774
    60.6600       820
    60.6800       804
    60.7000       794
    60.7200       826
    60.7400       802
    60.7600       824
    60.7800       816
    60.8000       824
    60.8200       822
    60.8400       782
    60.8600       872
    60.8800       854
    60.9000       840
    60.9200       744
    60.9400       802
    60.9600       832
    60.9800       824
    61.0000       842
    61.0200       840
    61.0400       822
    61.0600       778
    61.0800       826
    61.1000       826
    61.1200       782
    61.1400       858
    61.1600       822
    61.1800       780
    61.2000       772
    61.2200       754
    61.2400       852
    61.2600       784
    61.2800       822
    61.3000       790
    61.3200       858
    61.3400       832
    61.3600       800
    61.3800       838
    61.4000       780
    61.4200       834
    61.4400       834
    61.4600       832
    61.4800       798
    61.5000       828
    61.5200       790
    61.5400       834
    61.5600       778
    61.5800       826
    61.6000       796
    61.6200       784
    61.6400       780
    61.6600       778
    61.6800       816
    61.7000       812
    61.7200       878
    61.7400       770
    61.7600       840
    61.7800       804
    61.8000       828
    61.8200       828
    61.8400       820
    61.8600       810
    61.8800       818
    61.9000       850
    61.9200       790
    61.9400       822
    61.9600       804
    61.9800       836
    62.0000       850
    62.0200       814
    62.0400       788
    62.0600       848
    62.0800       842
    62.1000       840
    62.1200       836
    62.1400       774
    62.1600       822
    62.1800       838
    62.2000       786
    62.2200       790
    62.2400       784
    62.2600       832
    62.2800       818
    62.3000       796
    62.3200       812
    62.3400       798
    62.3600       778
    62.3800       768
    62.4000       788
    62.4200       806
    62.4400       824
    62.4600       762
    62.4800       848
    62.5000       844
    62.5200       752
    62.5400       796
    62.5600       808
    62.5800       804
    62.6000       786
    62.6200       812
    62.6400       810
    62.6600       798
    62.6800       840
    62.7000       720
    62.7200       844
    62.7400       806
    62.7600       794
    62.7800       858
    62.8000       762
    62.8200       820
    62.8400       770
    62.8600       800
    62.8800       784
    62.9000       866
    62.9200       780
    62.9400       796
    62.9600       824
    62.9800       866
    63.0000       808
    63.0200       838
    63.0400       806
    63.0600       796
    63.0800       822
    63.1000       820
    63.1200       834
    63.1400       832
    63.1600       822
    63.1800       818
    63.2000       836
    63.2200       788
    63.2400       838
    63.2600       780
    63.2800       796
    63.3000       834
    63.3200       734
    63.3400       844
    63.3600       812
    63.3800       746
    63.4000       788
    63.4200       800
    63.4400       818
    63.4600       868
    63.4800       822
    63.5000       810
    63.5200       846
    63.5400       870
    63.5600       778
    63.5800       848
    63.6000       848
    63.6200       806
    63.6400       812
    63.6600       830
    63.6800       808
    63.7000       766
    63.7200       822
    63.7400       834
    63.7600       788
    63.7800       804
    63.8000       780
    63.8200       816
    63.8400       856
    63.8600       812
    63.8800       804
    63.9000       804
    63.9200       834
    63.9400       776
    63.9600       780
    63.9800       822
    64.0000       864
    64.0200       832
    64.0400       860
    64.0600       818
    64.0800       810
    64.1000       798
    64.1200       848
    64.1400       794
    64.1600       826
    64.1800       766
    64.2000       830
    64.2200       812
    64.2400       836
    64.2600       868
    64.2800       756
    64.3000       838
    64.3200       828
    64.3400       836
    64.3600       880
    64.3800       838
    64.4000       876
    64.4200       852
    64.4400       846
    64.4600       810
    64.4800       846
    64.5000       854
    64.5200       810
    64.5400       856
    64.5600       868
    64.5800       836
    64.6000       824
    64.6200       844
    64.6400       782
    64.6600       826
    64.6800       820
    64.7000       762
    64.7200       848
    64.7400       856
    64.7600       814
    64.7800       804
    64.8000       882
    64.8200       868
    64.8400       852
    64.8600       876
    64.8800       886
    64.9000       872
    64.9200       910
    64.9400       874
    64.9600       870
    64.9800       922
    65.0000       882
    65.0200       794
    65.0400       856
    65.0600       826
    65.0800       832
    65.1000       900
    65.1200       844
    65.1400       798
    65.1600       832
    65.1800       834
    65.2000       864
    65.2200       838
    65.2400       842
    65.2600       796
    65.2800       834
    65.3000       786
    65.3200       840
    65.3400       840
    65.3600       794
    65.3800       758
    65.4000       832
    65.4200       812
    65.4400       836
    65.4600       788
    65.4800       776
    65.5000       846
    65.5200       838
    65.5400       798
    65.5600       814
    65.5800       804
    65.6000       816
    65.6200       846
    65.6400       804
    65.6600       846
    65.6800       796
    65.7000       850
    65.7200       832
    65.7400       828
    65.7600       874
    65.7800       804
    65.8000       834
    65.8200       842
    65.8400       812
    65.8600       822
    65.8800       808
    65.9000       828
    65.9200       800
    65.9400       860
    65.9600       834
    65.9800       878
    66.0000       782
    66.0200       816
    66.0400       810
    66.0600       796
    66.0800       814
    66.1000       806
    66.1200       782
    66.1400       836
    66.1600       842
    66.1800       846
    66.2000       840
    66.2200       830
    66.2400       778
    66.2600       816
    66.2800       792
    66.3000       844
    66.3200       828
    66.3400       878
    66.3600       774
    66.3800       792
    66.4000       804
    66.4200       804
    66.4400       896
    66.4600       806
    66.4800       840
    66.5000       824
    66.5200       780
    66.5400       758
    66.5600       852
    66.5800       862
    66.6000       832
    66.6200       796
    66.6400       802
    66.6600       846
    66.6800       788
    66.7000       804
    66.7200       812
    66.7400       780
    66.7600       840
    66.7800       792
    66.8000       864
    66.8200       862
    66.8400       816
    66.8600       782
    66.8800       904
    66.9000       822
    66.9200       850
    66.9400       806
    66.9600       860
    66.9800       830
    67.0000       816
    67.0200       842
    67.0400       900
    67.0600       806
    67.0800       810
    67.1000       896
    67.1200       922
    67.1400       846
    67.1600       858
    67.1800       796
    67.2000       800
    67.2200       914
    67.2400       826
    67.2600       912
    67.2800       904
    67.3000       852
    67.3200       850
    67.3400       840
    67.3600       840
    67.3800       846
    67.4000       836
    67.4200       864
    67.4400       862
    67.4600       812
    67.4800       860
    67.5000       846
    67.5200       816
    67.5400       874
    67.5600       838
    67.5800       794
    67.6000       860
    67.6200       858
    67.6400       830
    67.6600       854
    67.6800       834
    67.7000       830
    67.7200       814
    67.7400       888
    67.7600       808
    67.7800       822
    67.8000       786
    67.8200       820
    67.8400       792
    67.8600       862
    67.8800       824
    67.9000       850
    67.9200       824
    67.9400       870
    67.9600       800
    67.9800       804
    68.0000       824
    68.0200       868
    68.0400       798
    68.0600       848
    68.0800       802
    68.1000       832
    68.1200       826
    68.1400       820
    68.1600       786
    68.1800       828
    68.2000       848
    68.2200       828
    68.2400       834
    68.2600       830
    68.2800       818
    68.3000       852
    68.3200       798
    68.3400       776
    68.3600       802
    68.3800       824
    68.4000       862
    68.4200       844
    68.4400       770
    68.4600       852
    68.4800       830
    68.5000       808
    68.5200       844
    68.5400       790
    68.5600       832
    68.5800       772
    68.6000       818
    68.6200       790
    68.6400       840
    68.6600       842
    68.6800       786
    68.7000       850
    68.7200       804
    68.7400       848
    68.7600       836
    68.7800       862
    68.8000       816
    68.8200       804
    68.8400       900
    68.8600       842
    68.8800       798
    68.9000       800
    68.9200       844
    68.9400       758
    68.9600       794
    68.9800       868
    69.0000       862
    69.0200       790
    69.0400       776
    69.0600       804
    69.0800       812
    69.1000       818
    69.1200       872
    69.1400       806
    69.1600       812
    69.1800       798
    69.2000       870
    69.2200       826
    69.2400       812
    69.2600       796
    69.2800       814
    69.3000       872
    69.3200       790
    69.3400       764
    69.3600       820
    69.3800       816
    69.4000       802
    69.4200       802
    69.4400       838
    69.4600       844
    69.4800       874
    69.5000       804
    69.5200       810
    69.5400       834
    69.5600       838
    69.5800       794
    69.6000       852
    69.6200       848
    69.6400       808
    69.6600       774
    69.6800       792
    69.7000       802
    69.7200       880
    69.7400       800
    69.7600       816
    69.7800       786
    69.8000       824
    69.8200       832
    69.8400       798
    69.8600       810
    69.8800       794
    69.9000       834
    69.9200       818
    69.9400       874
    69.9600       862
    69.9800       810
    70.0000       792
