/////////////////////////////////////////////////////////////////////////////////
/// Profile Data Ascii Dump (XRD)                                             ///
/////////////////////////////////////////////////////////////////////////////////

  Group     : Standard
  Data      : nmo
  File Name : nmo.RAW

# Profile Datafile
          comment             =  
          date & time         = 25-12-03 13:18:58 

# Measurement Condition
    X-ray tube
          target              = Cu 
          voltage             = 40.0 (kV)
          current             = 30.0 (mA)
    Slits
          divergence slit     = 1.00000 (deg) 
          scatter slit        = 1.00000 (deg) 
          receiving slit      = 0.30000 (mm)  
    Scanning
          drive axis          = Theta-2Theta 
          scan range          =   10.000 -   70.000 
          scan mode           = Continuous Scan 
          scan speed          =   3.0000 (deg/min) 
          sampling pitch      =   0.0200 (deg) 
          preset time         =   0.40 (sec) 

# Data      [ Total No. = 3001 ]
  <2Theta>   <   I   >
    10.0000       466
    10.0200       506
    10.0400       514
    10.0600       524
    10.0800       466
    10.1000       498
    10.1200       464
    10.1400       434
    10.1600       480
    10.1800       506
    10.2000       500
    10.2200       498
    10.2400       454
    10.2600       486
    10.2800       474
    10.3000       498
    10.3200       424
    10.3400       482
    10.3600       456
    10.3800       472
    10.4000       434
    10.4200       480
    10.4400       420
    10.4600       480
    10.4800       418
    10.5000       464
    10.5200       464
    10.5400       444
    10.5600       420
    10.5800       458
    10.6000       424
    10.6200       400
    10.6400       420
    10.6600       450
    10.6800       470
    10.7000       474
    10.7200       428
    10.7400       444
    10.7600       440
    10.7800       470
    10.8000       468
    10.8200       438
    10.8400       420
    10.8600       438
    10.8800       430
    10.9000       450
    10.9200       380
    10.9400       476
    10.9600       430
    10.9800       448
    11.0000       412
    11.0200       414
    11.0400       388
    11.0600       426
    11.0800       408
    11.1000       448
    11.1200       460
    11.1400       392
    11.1600       430
    11.1800       474
    11.2000       484
    11.2200       440
    11.2400       410
    11.2600       478
    11.2800       442
    11.3000       466
    11.3200       442
    11.3400       424
    11.3600       460
    11.3800       436
    11.4000       454
    11.4200       478
    11.4400       442
    11.4600       400
    11.4800       424
    11.5000       458
    11.5200       452
    11.5400       458
    11.5600       450
    11.5800       468
    11.6000       478
    11.6200       432
    11.6400       440
    11.6600       474
    11.6800       452
    11.7000       450
    11.7200       446
    11.7400       480
    11.7600       470
    11.7800       468
    11.8000       450
    11.8200       496
    11.8400       470
    11.8600       474
    11.8800       498
    11.9000       494
    11.9200       474
    11.9400       464
    11.9600       432
    11.9800       488
    12.0000       490
    12.0200       488
    12.0400       460
    12.0600       530
    12.0800       476
    12.1000       584
    12.1200       544
    12.1400       502
    12.1600       498
    12.1800       532
    12.2000       526
    12.2200       516
    12.2400       514
    12.2600       564
    12.2800       520
    12.3000       504
    12.3200       532
    12.3400       552
    12.3600       564
    12.3800       540
    12.4000       558
    12.4200       546
    12.4400       542
    12.4600       508
    12.4800       524
    12.5000       574
    12.5200       534
    12.5400       592
    12.5600       520
    12.5800       548
    12.6000       510
    12.6200       496
    12.6400       568
    12.6600       498
    12.6800       520
    12.7000       454
    12.7200       510
    12.7400       532
    12.7600       484
    12.7800       506
    12.8000       528
    12.8200       492
    12.8400       458
    12.8600       486
    12.8800       500
    12.9000       472
    12.9200       468
    12.9400       478
    12.9600       452
    12.9800       470
    13.0000       506
    13.0200       474
    13.0400       488
    13.0600       460
    13.0800       478
    13.1000       496
    13.1200       510
    13.1400       456
    13.1600       442
    13.1800       456
    13.2000       466
    13.2200       460
    13.2400       460
    13.2600       460
    13.2800       424
    13.3000       476
    13.3200       446
    13.3400       466
    13.3600       418
    13.3800       440
    13.4000       420
    13.4200       452
    13.4400       434
    13.4600       416
    13.4800       474
    13.5000       458
    13.5200       480
    13.5400       492
    13.5600       444
    13.5800       452
    13.6000       504
    13.6200       444
    13.6400       448
    13.6600       438
    13.6800       444
    13.7000       390
    13.7200       446
    13.7400       442
    13.7600       450
    13.7800       444
    13.8000       452
    13.8200       434
    13.8400       426
    13.8600       468
    13.8800       428
    13.9000       434
    13.9200       462
    13.9400       440
    13.9600       460
    13.9800       464
    14.0000       420
    14.0200       438
    14.0400       434
    14.0600       440
    14.0800       460
    14.1000       440
    14.1200       434
    14.1400       414
    14.1600       442
    14.1800       418
    14.2000       438
    14.2200       408
    14.2400       428
    14.2600       452
    14.2800       430
    14.3000       436
    14.3200       460
    14.3400       436
    14.3600       450
    14.3800       398
    14.4000       450
    14.4200       484
    14.4400       452
    14.4600       422
    14.4800       414
    14.5000       410
    14.5200       428
    14.5400       470
    14.5600       440
    14.5800       466
    14.6000       412
    14.6200       406
    14.6400       420
    14.6600       394
    14.6800       412
    14.7000       482
    14.7200       492
    14.7400       474
    14.7600       466
    14.7800       438
    14.8000       466
    14.8200       480
    14.8400       438
    14.8600       446
    14.8800       472
    14.9000       440
    14.9200       458
    14.9400       412
    14.9600       428
    14.9800       466
    15.0000       442
    15.0200       436
    15.0400       394
    15.0600       434
    15.0800       474
    15.1000       420
    15.1200       428
    15.1400       448
    15.1600       448
    15.1800       472
    15.2000       448
    15.2200       456
    15.2400       478
    15.2600       470
    15.2800       452
    15.3000       434
    15.3200       430
    15.3400       428
    15.3600       420
    15.3800       442
    15.4000       460
    15.4200       474
    15.4400       428
    15.4600       426
    15.4800       454
    15.5000       474
    15.5200       470
    15.5400       476
    15.5600       462
    15.5800       470
    15.6000       462
    15.6200       404
    15.6400       448
    15.6600       460
    15.6800       474
    15.7000       412
    15.7200       460
    15.7400       436
    15.7600       424
    15.7800       490
    15.8000       446
    15.8200       480
    15.8400       442
    15.8600       436
    15.8800       484
    15.9000       476
    15.9200       446
    15.9400       428
    15.9600       460
    15.9800       456
    16.0000       454
    16.0200       468
    16.0400       440
    16.0600       480
    16.0800       460
    16.1000       480
    16.1200       482
    16.1400       442
    16.1600       516
    16.1800       432
    16.2000       452
    16.2200       500
    16.2400       468
    16.2600       484
    16.2800       484
    16.3000       478
    16.3200       454
    16.3400       432
    16.3600       506
    16.3800       456
    16.4000       464
    16.4200       462
    16.4400       448
    16.4600       482
    16.4800       452
    16.5000       450
    16.5200       492
    16.5400       472
    16.5600       466
    16.5800       458
    16.6000       418
    16.6200       450
    16.6400       476
    16.6600       460
    16.6800       456
    16.7000       440
    16.7200       470
    16.7400       448
    16.7600       454
    16.7800       460
    16.8000       462
    16.8200       412
    16.8400       462
    16.8600       456
    16.8800       432
    16.9000       470
    16.9200       478
    16.9400       474
    16.9600       476
    16.9800       446
    17.0000       464
    17.0200       456
    17.0400       458
    17.0600       526
    17.0800       488
    17.1000       490
    17.1200       438
    17.1400       500
    17.1600       468
    17.1800       474
    17.2000       434
    17.2200       468
    17.2400       482
    17.2600       480
    17.2800       462
    17.3000       468
    17.3200       474
    17.3400       432
    17.3600       466
    17.3800       474
    17.4000       498
    17.4200       474
    17.4400       482
    17.4600       500
    17.4800       472
    17.5000       442
    17.5200       492
    17.5400       456
    17.5600       498
    17.5800       528
    17.6000       506
    17.6200       466
    17.6400       462
    17.6600       488
    17.6800       488
    17.7000       466
    17.7200       448
    17.7400       492
    17.7600       482
    17.7800       502
    17.8000       538
    17.8200       454
    17.8400       528
    17.8600       460
    17.8800       530
    17.9000       480
    17.9200       490
    17.9400       466
    17.9600       468
    17.9800       452
    18.0000       436
    18.0200       524
    18.0400       484
    18.0600       458
    18.0800       460
    18.1000       482
    18.1200       516
    18.1400       460
    18.1600       466
    18.1800       490
    18.2000       476
    18.2200       442
    18.2400       476
    18.2600       506
    18.2800       498
    18.3000       498
    18.3200       478
    18.3400       504
    18.3600       466
    18.3800       506
    18.4000       462
    18.4200       510
    18.4400       466
    18.4600       514
    18.4800       490
    18.5000       458
    18.5200       504
    18.5400       482
    18.5600       506
    18.5800       500
    18.6000       462
    18.6200       478
    18.6400       470
    18.6600       528
    18.6800       522
    18.7000       456
    18.7200       490
    18.7400       486
    18.7600       488
    18.7800       482
    18.8000       520
    18.8200       492
    18.8400       508
    18.8600       524
    18.8800       500
    18.9000       496
    18.9200       472
    18.9400       468
    18.9600       492
    18.9800       496
    19.0000       462
    19.0200       498
    19.0400       512
    19.0600       494
    19.0800       524
    19.1000       488
    19.1200       484
    19.1400       518
    19.1600       492
    19.1800       512
    19.2000       520
    19.2200       510
    19.2400       510
    19.2600       508
    19.2800       536
    19.3000       494
    19.3200       506
    19.3400       502
    19.3600       534
    19.3800       556
    19.4000       508
    19.4200       538
    19.4400       508
    19.4600       548
    19.4800       522
    19.5000       528
    19.5200       534
    19.5400       482
    19.5600       538
    19.5800       520
    19.6000       516
    19.6200       542
    19.6400       534
    19.6600       516
    19.6800       488
    19.7000       494
    19.7200       560
    19.7400       524
    19.7600       544
    19.7800       488
    19.8000       582
    19.8200       558
    19.8400       542
    19.8600       590
    19.8800       544
    19.9000       496
    19.9200       496
    19.9400       508
    19.9600       544
    19.9800       534
    20.0000       518
    20.0200       552
    20.0400       546
    20.0600       540
    20.0800       518
    20.1000       520
    20.1200       520
    20.1400       524
    20.1600       504
    20.1800       584
    20.2000       558
    20.2200       540
    20.2400       542
    20.2600       462
    20.2800       586
    20.3000       556
    20.3200       524
    20.3400       526
    20.3600       508
    20.3800       482
    20.4000       574
    20.4200       524
    20.4400       518
    20.4600       532
    20.4800       514
    20.5000       556
    20.5200       524
    20.5400       558
    20.5600       558
    20.5800       544
    20.6000       530
    20.6200       530
    20.6400       532
    20.6600       548
    20.6800       528
    20.7000       538
    20.7200       540
    20.7400       500
    20.7600       546
    20.7800       512
    20.8000       518
    20.8200       554
    20.8400       552
    20.8600       592
    20.8800       488
    20.9000       550
    20.9200       520
    20.9400       588
    20.9600       512
    20.9800       530
    21.0000       532
    21.0200       576
    21.0400       504
    21.0600       576
    21.0800       550
    21.1000       542
    21.1200       592
    21.1400       540
    21.1600       560
    21.1800       502
    21.2000       552
    21.2200       538
    21.2400       498
    21.2600       532
    21.2800       546
    21.3000       530
    21.3200       510
    21.3400       536
    21.3600       540
    21.3800       538
    21.4000       516
    21.4200       540
    21.4400       532
    21.4600       596
    21.4800       564
    21.5000       544
    21.5200       528
    21.5400       546
    21.5600       574
    21.5800       536
    21.6000       522
    21.6200       546
    21.6400       554
    21.6600       572
    21.6800       568
    21.7000       514
    21.7200       556
    21.7400       536
    21.7600       566
    21.7800       586
    21.8000       554
    21.8200       562
    21.8400       538
    21.8600       574
    21.8800       568
    21.9000       518
    21.9200       592
    21.9400       526
    21.9600       568
    21.9800       534
    22.0000       522
    22.0200       562
    22.0400       550
    22.0600       614
    22.0800       550
    22.1000       552
    22.1200       550
    22.1400       552
    22.1600       534
    22.1800       570
    22.2000       570
    22.2200       616
    22.2400       552
    22.2600       516
    22.2800       516
    22.3000       540
    22.3200       526
    22.3400       550
    22.3600       568
    22.3800       602
    22.4000       566
    22.4200       512
    22.4400       572
    22.4600       568
    22.4800       622
    22.5000       568
    22.5200       566
    22.5400       548
    22.5600       550
    22.5800       540
    22.6000       580
    22.6200       576
    22.6400       538
    22.6600       540
    22.6800       608
    22.7000       578
    22.7200       536
    22.7400       568
    22.7600       580
    22.7800       602
    22.8000       568
    22.8200       550
    22.8400       548
    22.8600       596
    22.8800       530
    22.9000       570
    22.9200       582
    22.9400       578
    22.9600       602
    22.9800       506
    23.0000       592
    23.0200       558
    23.0400       570
    23.0600       546
    23.0800       554
    23.1000       570
    23.1200       524
    23.1400       600
    23.1600       562
    23.1800       600
    23.2000       596
    23.2200       620
    23.2400       570
    23.2600       556
    23.2800       560
    23.3000       570
    23.3200       564
    23.3400       582
    23.3600       590
    23.3800       574
    23.4000       630
    23.4200       570
    23.4400       614
    23.4600       604
    23.4800       572
    23.5000       550
    23.5200       586
    23.5400       562
    23.5600       560
    23.5800       544
    23.6000       564
    23.6200       552
    23.6400       590
    23.6600       596
    23.6800       600
    23.7000       582
    23.7200       598
    23.7400       592
    23.7600       578
    23.7800       558
    23.8000       568
    23.8200       590
    23.8400       614
    23.8600       590
    23.8800       554
    23.9000       586
    23.9200       560
    23.9400       560
    23.9600       554
    23.9800       612
    24.0000       576
    24.0200       568
    24.0400       598
    24.0600       606
    24.0800       586
    24.1000       574
    24.1200       534
    24.1400       578
    24.1600       544
    24.1800       562
    24.2000       600
    24.2200       586
    24.2400       594
    24.2600       530
    24.2800       558
    24.3000       578
    24.3200       562
    24.3400       564
    24.3600       602
    24.3800       630
    24.4000       620
    24.4200       626
    24.4400       596
    24.4600       590
    24.4800       644
    24.5000       626
    24.5200       562
    24.5400       600
    24.5600       576
    24.5800       578
    24.6000       630
    24.6200       564
    24.6400       652
    24.6600       608
    24.6800       596
    24.7000       650
    24.7200       594
    24.7400       612
    24.7600       614
    24.7800       598
    24.8000       600
    24.8200       604
    24.8400       606
    24.8600       600
    24.8800       622
    24.9000       648
    24.9200       626
    24.9400       644
    24.9600       618
    24.9800       664
    25.0000       602
    25.0200       588
    25.0400       626
    25.0600       570
    25.0800       624
    25.1000       598
    25.1200       656
    25.1400       610
    25.1600       636
    25.1800       610
    25.2000       594
    25.2200       600
    25.2400       628
    25.2600       624
    25.2800       590
    25.3000       578
    25.3200       588
    25.3400       604
    25.3600       640
    25.3800       604
    25.4000       572
    25.4200       592
    25.4400       600
    25.4600       606
    25.4800       628
    25.5000       618
    25.5200       556
    25.5400       580
    25.5600       600
    25.5800       592
    25.6000       594
    25.6200       594
    25.6400       578
    25.6600       626
    25.6800       592
    25.7000       558
    25.7200       606
    25.7400       576
    25.7600       566
    25.7800       590
    25.8000       586
    25.8200       574
    25.8400       618
    25.8600       586
    25.8800       586
    25.9000       574
    25.9200       608
    25.9400       596
    25.9600       558
    25.9800       546
    26.0000       610
    26.0200       550
    26.0400       562
    26.0600       542
    26.0800       578
    26.1000       562
    26.1200       574
    26.1400       580
    26.1600       582
    26.1800       576
    26.2000       586
    26.2200       552
    26.2400       596
    26.2600       566
    26.2800       570
    26.3000       624
    26.3200       556
    26.3400       584
    26.3600       562
    26.3800       576
    26.4000       540
    26.4200       576
    26.4400       604
    26.4600       580
    26.4800       580
    26.5000       570
    26.5200       584
    26.5400       614
    26.5600       588
    26.5800       590
    26.6000       572
    26.6200       574
    26.6400       548
    26.6600       554
    26.6800       556
    26.7000       584
    26.7200       580
    26.7400       574
    26.7600       586
    26.7800       560
    26.8000       534
    26.8200       592
    26.8400       562
    26.8600       576
    26.8800       582
    26.9000       588
    26.9200       580
    26.9400       558
    26.9600       562
    26.9800       550
    27.0000       612
    27.0200       606
    27.0400       606
    27.0600       578
    27.0800       606
    27.1000       580
    27.1200       618
    27.1400       588
    27.1600       538
    27.1800       574
    27.2000       556
    27.2200       602
    27.2400       580
    27.2600       574
    27.2800       590
    27.3000       572
    27.3200       618
    27.3400       592
    27.3600       518
    27.3800       560
    27.4000       598
    27.4200       556
    27.4400       570
    27.4600       562
    27.4800       524
    27.5000       588
    27.5200       578
    27.5400       558
    27.5600       606
    27.5800       568
    27.6000       568
    27.6200       568
    27.6400       592
    27.6600       558
    27.6800       546
    27.7000       548
    27.7200       540
    27.7400       584
    27.7600       564
    27.7800       574
    27.8000       606
    27.8200       596
    27.8400       608
    27.8600       576
    27.8800       546
    27.9000       564
    27.9200       608
    27.9400       530
    27.9600       594
    27.9800       572
    28.0000       588
    28.0200       604
    28.0400       560
    28.0600       612
    28.0800       574
    28.1000       574
    28.1200       546
    28.1400       582
    28.1600       532
    28.1800       564
    28.2000       574
    28.2200       610
    28.2400       566
    28.2600       582
    28.2800       606
    28.3000       552
    28.3200       610
    28.3400       544
    28.3600       620
    28.3800       586
    28.4000       530
    28.4200       590
    28.4400       560
    28.4600       584
    28.4800       578
    28.5000       584
    28.5200       576
    28.5400       540
    28.5600       562
    28.5800       546
    28.6000       550
    28.6200       614
    28.6400       572
    28.6600       586
    28.6800       534
    28.7000       566
    28.7200       592
    28.7400       524
    28.7600       522
    28.7800       576
    28.8000       570
    28.8200       596
    28.8400       570
    28.8600       554
    28.8800       610
    28.9000       546
    28.9200       556
    28.9400       564
    28.9600       578
    28.9800       584
    29.0000       566
    29.0200       542
    29.0400       530
    29.0600       542
    29.0800       598
    29.1000       572
    29.1200       562
    29.1400       572
    29.1600       590
    29.1800       598
    29.2000       568
    29.2200       582
    29.2400       590
    29.2600       576
    29.2800       538
    29.3000       578
    29.3200       594
    29.3400       542
    29.3600       572
    29.3800       576
    29.4000       566
    29.4200       562
    29.4400       512
    29.4600       582
    29.4800       562
    29.5000       588
    29.5200       594
    29.5400       590
    29.5600       544
    29.5800       540
    29.6000       562
    29.6200       604
    29.6400       626
    29.6600       576
    29.6800       576
    29.7000       604
    29.7200       558
    29.7400       546
    29.7600       566
    29.7800       556
    29.8000       588
    29.8200       598
    29.8400       600
    29.8600       542
    29.8800       534
    29.9000       550
    29.9200       576
    29.9400       590
    29.9600       570
    29.9800       514
    30.0000       590
    30.0200       522
    30.0400       572
    30.0600       544
    30.0800       606
    30.1000       542
    30.1200       578
    30.1400       544
    30.1600       590
    30.1800       546
    30.2000       584
    30.2200       558
    30.2400       582
    30.2600       574
    30.2800       532
    30.3000       546
    30.3200       574
    30.3400       528
    30.3600       582
    30.3800       532
    30.4000       566
    30.4200       522
    30.4400       514
    30.4600       606
    30.4800       534
    30.5000       562
    30.5200       572
    30.5400       512
    30.5600       564
    30.5800       574
    30.6000       610
    30.6200       542
    30.6400       600
    30.6600       522
    30.6800       588
    30.7000       536
    30.7200       572
    30.7400       546
    30.7600       552
    30.7800       574
    30.8000       594
    30.8200       530
    30.8400       562
    30.8600       514
    30.8800       582
    30.9000       538
    30.9200       572
    30.9400       564
    30.9600       516
    30.9800       540
    31.0000       514
    31.0200       594
    31.0400       578
    31.0600       552
    31.0800       562
    31.1000       546
    31.1200       544
    31.1400       558
    31.1600       558
    31.1800       524
    31.2000       558
    31.2200       560
    31.2400       512
    31.2600       560
    31.2800       538
    31.3000       558
    31.3200       568
    31.3400       562
    31.3600       580
    31.3800       582
    31.4000       614
    31.4200       534
    31.4400       526
    31.4600       586
    31.4800       588
    31.5000       578
    31.5200       588
    31.5400       556
    31.5600       564
    31.5800       526
    31.6000       552
    31.6200       554
    31.6400       540
    31.6600       548
    31.6800       536
    31.7000       540
    31.7200       518
    31.7400       566
    31.7600       550
    31.7800       546
    31.8000       582
    31.8200       524
    31.8400       542
    31.8600       552
    31.8800       550
    31.9000       560
    31.9200       584
    31.9400       530
    31.9600       562
    31.9800       560
    32.0000       548
    32.0200       526
    32.0400       522
    32.0600       552
    32.0800       578
    32.1000       588
    32.1200       558
    32.1400       592
    32.1600       554
    32.1800       612
    32.2000       518
    32.2200       580
    32.2400       556
    32.2600       570
    32.2800       574
    32.3000       568
    32.3200       502
    32.3400       564
    32.3600       546
    32.3800       584
    32.4000       570
    32.4200       522
    32.4400       558
    32.4600       546
    32.4800       514
    32.5000       474
    32.5200       550
    32.5400       514
    32.5600       520
    32.5800       504
    32.6000       542
    32.6200       520
    32.6400       528
    32.6600       548
    32.6800       520
    32.7000       504
    32.7200       526
    32.7400       524
    32.7600       558
    32.7800       592
    32.8000       540
    32.8200       594
    32.8400       556
    32.8600       564
    32.8800       522
    32.9000       532
    32.9200       576
    32.9400       492
    32.9600       502
    32.9800       556
    33.0000       552
    33.0200       580
    33.0400       490
    33.0600       528
    33.0800       560
    33.1000       526
    33.1200       506
    33.1400       536
    33.1600       512
    33.1800       488
    33.2000       530
    33.2200       542
    33.2400       496
    33.2600       574
    33.2800       568
    33.3000       532
    33.3200       508
    33.3400       526
    33.3600       544
    33.3800       522
    33.4000       564
    33.4200       542
    33.4400       496
    33.4600       530
    33.4800       564
    33.5000       576
    33.5200       548
    33.5400       538
    33.5600       530
    33.5800       572
    33.6000       540
    33.6200       530
    33.6400       568
    33.6600       596
    33.6800       514
    33.7000       560
    33.7200       518
    33.7400       534
    33.7600       532
    33.7800       542
    33.8000       526
    33.8200       534
    33.8400       562
    33.8600       564
    33.8800       514
    33.9000       504
    33.9200       482
    33.9400       520
    33.9600       472
    33.9800       544
    34.0000       520
    34.0200       536
    34.0400       516
    34.0600       556
    34.0800       522
    34.1000       522
    34.1200       526
    34.1400       572
    34.1600       538
    34.1800       514
    34.2000       542
    34.2200       552
    34.2400       556
    34.2600       528
    34.2800       506
    34.3000       536
    34.3200       532
    34.3400       528
    34.3600       554
    34.3800       558
    34.4000       502
    34.4200       532
    34.4400       522
    34.4600       530
    34.4800       548
    34.5000       556
    34.5200       532
    34.5400       542
    34.5600       550
    34.5800       524
    34.6000       536
    34.6200       518
    34.6400       544
    34.6600       524
    34.6800       500
    34.7000       540
    34.7200       504
    34.7400       502
    34.7600       512
    34.7800       560
    34.8000       538
    34.8200       518
    34.8400       510
    34.8600       512
    34.8800       512
    34.9000       528
    34.9200       522
    34.9400       512
    34.9600       532
    34.9800       512
    35.0000       532
    35.0200       496
    35.0400       574
    35.0600       518
    35.0800       572
    35.1000       482
    35.1200       528
    35.1400       510
    35.1600       530
    35.1800       522
    35.2000       494
    35.2200       538
    35.2400       542
    35.2600       532
    35.2800       514
    35.3000       446
    35.3200       512
    35.3400       558
    35.3600       526
    35.3800       458
    35.4000       508
    35.4200       494
    35.4400       536
    35.4600       514
    35.4800       512
    35.5000       514
    35.5200       424
    35.5400       480
    35.5600       520
    35.5800       500
    35.6000       524
    35.6200       486
    35.6400       508
    35.6600       508
    35.6800       524
    35.7000       500
    35.7200       522
    35.7400       518
    35.7600       516
    35.7800       538
    35.8000       554
    35.8200       506
    35.8400       510
    35.8600       522
    35.8800       562
    35.9000       512
    35.9200       516
    35.9400       502
    35.9600       484
    35.9800       538
    36.0000       508
    36.0200       482
    36.0400       486
    36.0600       524
    36.0800       582
    36.1000       522
    36.1200       534
    36.1400       482
    36.1600       500
    36.1800       502
    36.2000       570
    36.2200       524
    36.2400       496
    36.2600       528
    36.2800       550
    36.3000       514
    36.3200       528
    36.3400       516
    36.3600       522
    36.3800       544
    36.4000       530
    36.4200       538
    36.4400       558
    36.4600       552
    36.4800       542
    36.5000       524
    36.5200       558
    36.5400       526
    36.5600       570
    36.5800       558
    36.6000       548
    36.6200       556
    36.6400       594
    36.6600       566
    36.6800       546
    36.7000       576
    36.7200       512
    36.7400       576
    36.7600       576
    36.7800       532
    36.8000       556
    36.8200       582
    36.8400       574
    36.8600       542
    36.8800       542
    36.9000       560
    36.9200       560
    36.9400       528
    36.9600       568
    36.9800       508
    37.0000       478
    37.0200       536
    37.0400       598
    37.0600       576
    37.0800       550
    37.1000       524
    37.1200       546
    37.1400       576
    37.1600       590
    37.1800       566
    37.2000       544
    37.2200       518
    37.2400       514
    37.2600       506
    37.2800       562
    37.3000       492
    37.3200       514
    37.3400       528
    37.3600       532
    37.3800       534
    37.4000       512
    37.4200       538
    37.4400       522
    37.4600       548
    37.4800       522
    37.5000       554
    37.5200       578
    37.5400       522
    37.5600       570
    37.5800       516
    37.6000       544
    37.6200       546
    37.6400       512
    37.6600       546
    37.6800       542
    37.7000       530
    37.7200       512
    37.7400       536
    37.7600       590
    37.7800       560
    37.8000       526
    37.8200       490
    37.8400       536
    37.8600       540
    37.8800       540
    37.9000       542
    37.9200       506
    37.9400       538
    37.9600       492
    37.9800       496
    38.0000       498
    38.0200       520
    38.0400       518
    38.0600       558
    38.0800       544
    38.1000       516
    38.1200       516
    38.1400       528
    38.1600       540
    38.1800       546
    38.2000       504
    38.2200       538
    38.2400       518
    38.2600       510
    38.2800       512
    38.3000       550
    38.3200       514
    38.3400       506
    38.3600       592
    38.3800       544
    38.4000       518
    38.4200       558
    38.4400       520
    38.4600       500
    38.4800       508
    38.5000       528
    38.5200       534
    38.5400       552
    38.5600       552
    38.5800       504
    38.6000       572
    38.6200       542
    38.6400       536
    38.6600       540
    38.6800       534
    38.7000       536
    38.7200       462
    38.7400       524
    38.7600       530
    38.7800       548
    38.8000       450
    38.8200       536
    38.8400       486
    38.8600       546
    38.8800       538
    38.9000       488
    38.9200       524
    38.9400       546
    38.9600       466
    38.9800       534
    39.0000       512
    39.0200       506
    39.0400       502
    39.0600       526
    39.0800       530
    39.1000       540
    39.1200       454
    39.1400       528
    39.1600       534
    39.1800       520
    39.2000       520
    39.2200       470
    39.2400       492
    39.2600       568
    39.2800       552
    39.3000       468
    39.3200       528
    39.3400       516
    39.3600       518
    39.3800       572
    39.4000       478
    39.4200       522
    39.4400       518
    39.4600       496
    39.4800       512
    39.5000       488
    39.5200       488
    39.5400       524
    39.5600       526
    39.5800       542
    39.6000       528
    39.6200       524
    39.6400       516
    39.6600       526
    39.6800       542
    39.7000       518
    39.7200       554
    39.7400       538
    39.7600       546
    39.7800       566
    39.8000       514
    39.8200       496
    39.8400       514
    39.8600       506
    39.8800       522
    39.9000       520
    39.9200       536
    39.9400       504
    39.9600       504
    39.9800       560
    40.0000       476
    40.0200       478
    40.0400       532
    40.0600       520
    40.0800       550
    40.1000       530
    40.1200       514
    40.1400       556
    40.1600       506
    40.1800       504
    40.2000       530
    40.2200       490
    40.2400       482
    40.2600       544
    40.2800       514
    40.3000       488
    40.3200       486
    40.3400       522
    40.3600       498
    40.3800       504
    40.4000       506
    40.4200       538
    40.4400       532
    40.4600       502
    40.4800       534
    40.5000       506
    40.5200       538
    40.5400       500
    40.5600       492
    40.5800       512
    40.6000       566
    40.6200       510
    40.6400       544
    40.6600       492
    40.6800       518
    40.7000       504
    40.7200       478
    40.7400       532
    40.7600       534
    40.7800       488
    40.8000       530
    40.8200       504
    40.8400       508
    40.8600       538
    40.8800       528
    40.9000       486
    40.9200       534
    40.9400       504
    40.9600       458
    40.9800       514
    41.0000       518
    41.0200       528
    41.0400       510
    41.0600       576
    41.0800       538
    41.1000       560
    41.1200       484
    41.1400       572
    41.1600       532
    41.1800       490
    41.2000       502
    41.2200       504
    41.2400       508
    41.2600       528
    41.2800       504
    41.3000       514
    41.3200       492
    41.3400       544
    41.3600       526
    41.3800       534
    41.4000       558
    41.4200       520
    41.4400       498
    41.4600       486
    41.4800       486
    41.5000       498
    41.5200       510
    41.5400       514
    41.5600       552
    41.5800       544
    41.6000       498
    41.6200       480
    41.6400       478
    41.6600       528
    41.6800       498
    41.7000       564
    41.7200       478
    41.7400       554
    41.7600       504
    41.7800       472
    41.8000       468
    41.8200       490
    41.8400       518
    41.8600       500
    41.8800       542
    41.9000       492
    41.9200       502
    41.9400       514
    41.9600       490
    41.9800       550
    42.0000       492
    42.0200       456
    42.0400       492
    42.0600       506
    42.0800       496
    42.1000       516
    42.1200       496
    42.1400       478
    42.1600       526
    42.1800       504
    42.2000       490
    42.2200       482
    42.2400       504
    42.2600       518
    42.2800       524
    42.3000       536
    42.3200       490
    42.3400       496
    42.3600       484
    42.3800       508
    42.4000       512
    42.4200       482
    42.4400       504
    42.4600       546
    42.4800       536
    42.5000       510
    42.5200       528
    42.5400       462
    42.5600       460
    42.5800       484
    42.6000       504
    42.6200       470
    42.6400       512
    42.6600       516
    42.6800       490
    42.7000       500
    42.7200       516
    42.7400       498
    42.7600       542
    42.7800       536
    42.8000       508
    42.8200       494
    42.8400       498
    42.8600       498
    42.8800       566
    42.9000       530
    42.9200       506
    42.9400       518
    42.9600       484
    42.9800       502
    43.0000       506
    43.0200       510
    43.0400       462
    43.0600       552
    43.0800       504
    43.1000       468
    43.1200       500
    43.1400       508
    43.1600       508
    43.1800       500
    43.2000       494
    43.2200       504
    43.2400       494
    43.2600       524
    43.2800       512
    43.3000       508
    43.3200       550
    43.3400       518
    43.3600       492
    43.3800       490
    43.4000       530
    43.4200       498
    43.4400       522
    43.4600       466
    43.4800       506
    43.5000       482
    43.5200       476
    43.5400       510
    43.5600       476
    43.5800       482
    43.6000       514
    43.6200       502
    43.6400       476
    43.6600       464
    43.6800       480
    43.7000       510
    43.7200       490
    43.7400       492
    43.7600       498
    43.7800       536
    43.8000       478
    43.8200       504
    43.8400       538
    43.8600       494
    43.8800       470
    43.9000       492
    43.9200       490
    43.9400       486
    43.9600       520
    43.9800       510
    44.0000       470
    44.0200       530
    44.0400       474
    44.0600       448
    44.0800       454
    44.1000       496
    44.1200       500
    44.1400       498
    44.1600       510
    44.1800       512
    44.2000       484
    44.2200       496
    44.2400       454
    44.2600       518
    44.2800       440
    44.3000       492
    44.3200       464
    44.3400       488
    44.3600       480
    44.3800       512
    44.4000       502
    44.4200       498
    44.4400       502
    44.4600       480
    44.4800       486
    44.5000       484
    44.5200       518
    44.5400       506
    44.5600       474
    44.5800       530
    44.6000       522
    44.6200       512
    44.6400       520
    44.6600       536
    44.6800       520
    44.7000       460
    44.7200       508
    44.7400       518
    44.7600       500
    44.7800       512
    44.8000       506
    44.8200       480
    44.8400       506
    44.8600       498
    44.8800       480
    44.9000       516
    44.9200       512
    44.9400       520
    44.9600       490
    44.9800       512
    45.0000       486
    45.0200       500
    45.0400       518
    45.0600       532
    45.0800       528
    45.1000       540
    45.1200       494
    45.1400       518
    45.1600       480
    45.1800       466
    45.2000       498
    45.2200       478
    45.2400       524
    45.2600       454
    45.2800       516
    45.3000       508
    45.3200       526
    45.3400       482
    45.3600       488
    45.3800       480
    45.4000       492
    45.4200       460
    45.4400       512
    45.4600       526
    45.4800       504
    45.5000       486
    45.5200       504
    45.5400       466
    45.5600       544
    45.5800       494
    45.6000       506
    45.6200       522
    45.6400       496
    45.6600       470
    45.6800       508
    45.7000       478
    45.7200       486
    45.7400       500
    45.7600       504
    45.7800       470
    45.8000       512
    45.8200       504
    45.8400       470
    45.8600       486
    45.8800       514
    45.9000       474
    45.9200       464
    45.9400       468
    45.9600       498
    45.9800       500
    46.0000       494
    46.0200       504
    46.0400       474
    46.0600       498
    46.0800       502
    46.1000       488
    46.1200       532
    46.1400       492
    46.1600       456
    46.1800       500
    46.2000       516
    46.2200       492
    46.2400       504
    46.2600       496
    46.2800       464
    46.3000       498
    46.3200       480
    46.3400       494
    46.3600       512
    46.3800       472
    46.4000       478
    46.4200       500
    46.4400       480
    46.4600       482
    46.4800       478
    46.5000       510
    46.5200       478
    46.5400       442
    46.5600       490
    46.5800       496
    46.6000       524
    46.6200       482
    46.6400       494
    46.6600       474
    46.6800       548
    46.7000       526
    46.7200       488
    46.7400       488
    46.7600       454
    46.7800       496
    46.8000       524
    46.8200       458
    46.8400       498
    46.8600       530
    46.8800       506
    46.9000       506
    46.9200       500
    46.9400       500
    46.9600       514
    46.9800       490
    47.0000       472
    47.0200       462
    47.0400       500
    47.0600       440
    47.0800       478
    47.1000       490
    47.1200       460
    47.1400       502
    47.1600       472
    47.1800       500
    47.2000       454
    47.2200       488
    47.2400       456
    47.2600       458
    47.2800       492
    47.3000       422
    47.3200       442
    47.3400       490
    47.3600       464
    47.3800       514
    47.4000       512
    47.4200       488
    47.4400       464
    47.4600       486
    47.4800       470
    47.5000       478
    47.5200       472
    47.5400       530
    47.5600       430
    47.5800       464
    47.6000       470
    47.6200       476
    47.6400       456
    47.6600       484
    47.6800       494
    47.7000       450
    47.7200       502
    47.7400       502
    47.7600       502
    47.7800       466
    47.8000       468
    47.8200       484
    47.8400       498
    47.8600       462
    47.8800       478
    47.9000       444
    47.9200       486
    47.9400       452
    47.9600       496
    47.9800       466
    48.0000       492
    48.0200       480
    48.0400       448
    48.0600       524
    48.0800       496
    48.1000       508
    48.1200       486
    48.1400       506
    48.1600       474
    48.1800       470
    48.2000       490
    48.2200       500
    48.2400       452
    48.2600       524
    48.2800       478
    48.3000       496
    48.3200       476
    48.3400       454
    48.3600       468
    48.3800       528
    48.4000       488
    48.4200       504
    48.4400       468
    48.4600       508
    48.4800       488
    48.5000       468
    48.5200       486
    48.5400       450
    48.5600       486
    48.5800       496
    48.6000       450
    48.6200       490
    48.6400       474
    48.6600       508
    48.6800       520
    48.7000       490
    48.7200       482
    48.7400       526
    48.7600       498
    48.7800       462
    48.8000       496
    48.8200       504
    48.8400       484
    48.8600       444
    48.8800       448
    48.9000       414
    48.9200       460
    48.9400       442
    48.9600       472
    48.9800       476
    49.0000       478
    49.0200       496
    49.0400       488
    49.0600       454
    49.0800       490
    49.1000       490
    49.1200       494
    49.1400       486
    49.1600       474
    49.1800       468
    49.2000       450
    49.2200       480
    49.2400       490
    49.2600       462
    49.2800       466
    49.3000       410
    49.3200       522
    49.3400       456
    49.3600       458
    49.3800       454
    49.4000       498
    49.4200       494
    49.4400       470
    49.4600       466
    49.4800       468
    49.5000       480
    49.5200       484
    49.5400       516
    49.5600       472
    49.5800       466
    49.6000       480
    49.6200       438
    49.6400       434
    49.6600       480
    49.6800       484
    49.7000       476
    49.7200       432
    49.7400       476
    49.7600       484
    49.7800       466
    49.8000       502
    49.8200       498
    49.8400       462
    49.8600       490
    49.8800       462
    49.9000       476
    49.9200       478
    49.9400       476
    49.9600       442
    49.9800       470
    50.0000       446
    50.0200       482
    50.0400       472
    50.0600       492
    50.0800       520
    50.1000       500
    50.1200       496
    50.1400       450
    50.1600       480
    50.1800       478
    50.2000       448
    50.2200       474
    50.2400       498
    50.2600       484
    50.2800       496
    50.3000       466
    50.3200       490
    50.3400       478
    50.3600       442
    50.3800       484
    50.4000       468
    50.4200       512
    50.4400       466
    50.4600       468
    50.4800       490
    50.5000       454
    50.5200       446
    50.5400       478
    50.5600       468
    50.5800       460
    50.6000       472
    50.6200       506
    50.6400       472
    50.6600       508
    50.6800       500
    50.7000       458
    50.7200       452
    50.7400       464
    50.7600       510
    50.7800       464
    50.8000       444
    50.8200       464
    50.8400       458
    50.8600       490
    50.8800       512
    50.9000       480
    50.9200       470
    50.9400       516
    50.9600       512
    50.9800       436
    51.0000       484
    51.0200       452
    51.0400       458
    51.0600       462
    51.0800       490
    51.1000       448
    51.1200       456
    51.1400       540
    51.1600       480
    51.1800       520
    51.2000       494
    51.2200       436
    51.2400       458
    51.2600       484
    51.2800       492
    51.3000       506
    51.3200       472
    51.3400       506
    51.3600       456
    51.3800       438
    51.4000       442
    51.4200       452
    51.4400       502
    51.4600       462
    51.4800       504
    51.5000       462
    51.5200       486
    51.5400       456
    51.5600       444
    51.5800       498
    51.6000       454
    51.6200       442
    51.6400       478
    51.6600       444
    51.6800       516
    51.7000       450
    51.7200       502
    51.7400       458
    51.7600       448
    51.7800       476
    51.8000       458
    51.8200       468
    51.8400       484
    51.8600       472
    51.8800       478
    51.9000       458
    51.9200       484
    51.9400       452
    51.9600       466
    51.9800       490
    52.0000       488
    52.0200       476
    52.0400       500
    52.0600       478
    52.0800       490
    52.1000       480
    52.1200       458
    52.1400       512
    52.1600       448
    52.1800       436
    52.2000       448
    52.2200       466
    52.2400       494
    52.2600       504
    52.2800       490
    52.3000       476
    52.3200       504
    52.3400       502
    52.3600       472
    52.3800       500
    52.4000       504
    52.4200       472
    52.4400       436
    52.4600       468
    52.4800       440
    52.5000       470
    52.5200       454
    52.5400       466
    52.5600       460
    52.5800       466
    52.6000       478
    52.6200       454
    52.6400       454
    52.6600       466
    52.6800       480
    52.7000       464
    52.7200       450
    52.7400       470
    52.7600       442
    52.7800       432
    52.8000       466
    52.8200       464
    52.8400       472
    52.8600       466
    52.8800       438
    52.9000       502
    52.9200       486
    52.9400       496
    52.9600       492
    52.9800       472
    53.0000       488
    53.0200       450
    53.0400       454
    53.0600       420
    53.0800       434
    53.1000       496
    53.1200       430
    53.1400       470
    53.1600       450
    53.1800       514
    53.2000       470
    53.2200       482
    53.2400       504
    53.2600       428
    53.2800       434
    53.3000       434
    53.3200       464
    53.3400       444
    53.3600       468
    53.3800       462
    53.4000       446
    53.4200       474
    53.4400       480
    53.4600       484
    53.4800       478
    53.5000       434
    53.5200       482
    53.5400       510
    53.5600       458
    53.5800       460
    53.6000       450
    53.6200       484
    53.6400       462
    53.6600       480
    53.6800       458
    53.7000       456
    53.7200       436
    53.7400       482
    53.7600       436
    53.7800       456
    53.8000       434
    53.8200       476
    53.8400       442
    53.8600       436
    53.8800       500
    53.9000       416
    53.9200       434
    53.9400       442
    53.9600       456
    53.9800       474
    54.0000       448
    54.0200       432
    54.0400       434
    54.0600       482
    54.0800       482
    54.1000       456
    54.1200       442
    54.1400       458
    54.1600       490
    54.1800       450
    54.2000       442
    54.2200       450
    54.2400       458
    54.2600       470
    54.2800       492
    54.3000       482
    54.3200       480
    54.3400       470
    54.3600       458
    54.3800       462
    54.4000       492
    54.4200       458
    54.4400       494
    54.4600       464
    54.4800       472
    54.5000       484
    54.5200       492
    54.5400       450
    54.5600       460
    54.5800       460
    54.6000       444
    54.6200       486
    54.6400       466
    54.6600       492
    54.6800       450
    54.7000       434
    54.7200       442
    54.7400       452
    54.7600       454
    54.7800       444
    54.8000       498
    54.8200       502
    54.8400       446
    54.8600       470
    54.8800       454
    54.9000       458
    54.9200       528
    54.9400       462
    54.9600       474
    54.9800       440
    55.0000       474
    55.0200       414
    55.0400       438
    55.0600       496
    55.0800       460
    55.1000       466
    55.1200       472
    55.1400       460
    55.1600       444
    55.1800       450
    55.2000       438
    55.2200       476
    55.2400       480
    55.2600       452
    55.2800       454
    55.3000       478
    55.3200       448
    55.3400       510
    55.3600       454
    55.3800       456
    55.4000       492
    55.4200       440
    55.4400       452
    55.4600       438
    55.4800       488
    55.5000       510
    55.5200       448
    55.5400       474
    55.5600       496
    55.5800       514
    55.6000       486
    55.6200       472
    55.6400       464
    55.6600       452
    55.6800       436
    55.7000       464
    55.7200       462
    55.7400       512
    55.7600       458
    55.7800       460
    55.8000       458
    55.8200       472
    55.8400       494
    55.8600       486
    55.8800       460
    55.9000       462
    55.9200       460
    55.9400       440
    55.9600       432
    55.9800       480
    56.0000       448
    56.0200       436
    56.0400       484
    56.0600       480
    56.0800       444
    56.1000       474
    56.1200       450
    56.1400       460
    56.1600       496
    56.1800       434
    56.2000       468
    56.2200       472
    56.2400       444
    56.2600       432
    56.2800       490
    56.3000       466
    56.3200       424
    56.3400       466
    56.3600       480
    56.3800       466
    56.4000       468
    56.4200       456
    56.4400       464
    56.4600       436
    56.4800       438
    56.5000       458
    56.5200       472
    56.5400       476
    56.5600       474
    56.5800       482
    56.6000       490
    56.6200       446
    56.6400       430
    56.6600       460
    56.6800       432
    56.7000       466
    56.7200       478
    56.7400       470
    56.7600       476
    56.7800       420
    56.8000       494
    56.8200       474
    56.8400       432
    56.8600       448
    56.8800       496
    56.9000       486
    56.9200       458
    56.9400       460
    56.9600       458
    56.9800       444
    57.0000       428
    57.0200       460
    57.0400       458
    57.0600       476
    57.0800       462
    57.1000       486
    57.1200       464
    57.1400       460
    57.1600       506
    57.1800       508
    57.2000       436
    57.2200       466
    57.2400       460
    57.2600       504
    57.2800       460
    57.3000       480
    57.3200       486
    57.3400       440
    57.3600       446
    57.3800       470
    57.4000       460
    57.4200       482
    57.4400       428
    57.4600       486
    57.4800       448
    57.5000       444
    57.5200       442
    57.5400       464
    57.5600       468
    57.5800       480
    57.6000       436
    57.6200       432
    57.6400       496
    57.6600       494
    57.6800       480
    57.7000       440
    57.7200       502
    57.7400       470
    57.7600       450
    57.7800       502
    57.8000       486
    57.8200       474
    57.8400       466
    57.8600       418
    57.8800       416
    57.9000       458
    57.9200       446
    57.9400       436
    57.9600       454
    57.9800       478
    58.0000       490
    58.0200       502
    58.0400       424
    58.0600       462
    58.0800       460
    58.1000       414
    58.1200       448
    58.1400       418
    58.1600       450
    58.1800       472
    58.2000       500
    58.2200       498
    58.2400       464
    58.2600       442
    58.2800       424
    58.3000       428
    58.3200       480
    58.3400       436
    58.3600       474
    58.3800       428
    58.4000       450
    58.4200       460
    58.4400       434
    58.4600       464
    58.4800       444
    58.5000       450
    58.5200       410
    58.5400       460
    58.5600       446
    58.5800       450
    58.6000       488
    58.6200       414
    58.6400       470
    58.6600       458
    58.6800       474
    58.7000       466
    58.7200       468
    58.7400       392
    58.7600       480
    58.7800       436
    58.8000       438
    58.8200       522
    58.8400       456
    58.8600       452
    58.8800       442
    58.9000       426
    58.9200       440
    58.9400       472
    58.9600       440
    58.9800       462
    59.0000       464
    59.0200       458
    59.0400       442
    59.0600       454
    59.0800       464
    59.1000       478
    59.1200       420
    59.1400       412
    59.1600       440
    59.1800       434
    59.2000       458
    59.2200       464
    59.2400       468
    59.2600       446
    59.2800       468
    59.3000       460
    59.3200       460
    59.3400       462
    59.3600       432
    59.3800       444
    59.4000       462
    59.4200       460
    59.4400       400
    59.4600       468
    59.4800       472
    59.5000       460
    59.5200       466
    59.5400       444
    59.5600       452
    59.5800       412
    59.6000       438
    59.6200       464
    59.6400       470
    59.6600       444
    59.6800       438
    59.7000       460
    59.7200       460
    59.7400       416
    59.7600       456
    59.7800       474
    59.8000       416
    59.8200       430
    59.8400       458
    59.8600       444
    59.8800       450
    59.9000       476
    59.9200       458
    59.9400       426
    59.9600       446
    59.9800       492
    60.0000       464
    60.0200       444
    60.0400       472
    60.0600       460
    60.0800       462
    60.1000       440
    60.1200       464
    60.1400       436
    60.1600       444
    60.1800       460
    60.2000       490
    60.2200       446
    60.2400       436
    60.2600       470
    60.2800       438
    60.3000       412
    60.3200       458
    60.3400       426
    60.3600       482
    60.3800       444
    60.4000       440
    60.4200       460
    60.4400       482
    60.4600       458
    60.4800       476
    60.5000       432
    60.5200       460
    60.5400       434
    60.5600       468
    60.5800       450
    60.6000       426
    60.6200       470
    60.6400       428
    60.6600       472
    60.6800       466
    60.7000       460
    60.7200       486
    60.7400       476
    60.7600       412
    60.7800       446
    60.8000       442
    60.8200       462
    60.8400       444
    60.8600       472
    60.8800       440
    60.9000       440
    60.9200       416
    60.9400       460
    60.9600       466
    60.9800       452
    61.0000       458
    61.0200       422
    61.0400       430
    61.0600       432
    61.0800       458
    61.1000       486
    61.1200       446
    61.1400       430
    61.1600       458
    61.1800       430
    61.2000       446
    61.2200       440
    61.2400       476
    61.2600       456
    61.2800       450
    61.3000       464
    61.3200       458
    61.3400       428
    61.3600       430
    61.3800       476
    61.4000       482
    61.4200       432
    61.4400       440
    61.4600       422
    61.4800       474
    61.5000       436
    61.5200       438
    61.5400       462
    61.5600       444
    61.5800       426
    61.6000       438
    61.6200       450
    61.6400       462
    61.6600       442
    61.6800       450
    61.7000       498
    61.7200       426
    61.7400       462
    61.7600       458
    61.7800       464
    61.8000       438
    61.8200       478
    61.8400       426
    61.8600       486
    61.8800       466
    61.9000       462
    61.9200       476
    61.9400       464
    61.9600       440
    61.9800       480
    62.0000       442
    62.0200       426
    62.0400       450
    62.0600       422
    62.0800       448
    62.1000       440
    62.1200       434
    62.1400       490
    62.1600       428
    62.1800       448
    62.2000       478
    62.2200       450
    62.2400       402
    62.2600       466
    62.2800       478
    62.3000       468
    62.3200       400
    62.3400       452
    62.3600       434
    62.3800       466
    62.4000       430
    62.4200       452
    62.4400       436
    62.4600       460
    62.4800       446
    62.5000       414
    62.5200       430
    62.5400       438
    62.5600       428
    62.5800       430
    62.6000       470
    62.6200       426
    62.6400       472
    62.6600       464
    62.6800       400
    62.7000       428
    62.7200       464
    62.7400       448
    62.7600       436
    62.7800       448
    62.8000       478
    62.8200       460
    62.8400       444
    62.8600       452
    62.8800       430
    62.9000       470
    62.9200       478
    62.9400       476
    62.9600       458
    62.9800       420
    63.0000       424
    63.0200       420
    63.0400       446
    63.0600       464
    63.0800       418
    63.1000       398
    63.1200       422
    63.1400       426
    63.1600       426
    63.1800       458
    63.2000       400
    63.2200       450
    63.2400       414
    63.2600       484
    63.2800       430
    63.3000       422
    63.3200       444
    63.3400       398
    63.3600       422
    63.3800       458
    63.4000       450
    63.4200       444
    63.4400       446
    63.4600       470
    63.4800       454
    63.5000       446
    63.5200       432
    63.5400       418
    63.5600       442
    63.5800       404
    63.6000       454
    63.6200       468
    63.6400       406
    63.6600       428
    63.6800       448
    63.7000       432
    63.7200       482
    63.7400       416
    63.7600       440
    63.7800       426
    63.8000       408
    63.8200       472
    63.8400       480
    63.8600       442
    63.8800       454
    63.9000       456
    63.9200       460
    63.9400       438
    63.9600       456
    63.9800       436
    64.0000       462
    64.0200       438
    64.0400       454
    64.0600       450
    64.0800       422
    64.1000       410
    64.1200       448
    64.1400       428
    64.1600       460
    64.1800       492
    64.2000       438
    64.2200       478
    64.2400       442
    64.2600       458
    64.2800       440
    64.3000       462
    64.3200       434
    64.3400       406
    64.3600       478
    64.3800       454
    64.4000       430
    64.4200       424
    64.4400       418
    64.4600       406
    64.4800       436
    64.5000       464
    64.5200       442
    64.5400       484
    64.5600       412
    64.5800       410
    64.6000       442
    64.6200       428
    64.6400       434
    64.6600       460
    64.6800       416
    64.7000       438
    64.7200       424
    64.7400       446
    64.7600       446
    64.7800       426
    64.8000       402
    64.8200       450
    64.8400       412
    64.8600       448
    64.8800       412
    64.9000       446
    64.9200       464
    64.9400       430
    64.9600       482
    64.9800       408
    65.0000       424
    65.0200       416
    65.0400       444
    65.0600       430
    65.0800       428
    65.1000       424
    65.1200       442
    65.1400       432
    65.1600       440
    65.1800       430
    65.2000       436
    65.2200       446
    65.2400       434
    65.2600       440
    65.2800       474
    65.3000       416
    65.3200       418
    65.3400       412
    65.3600       470
    65.3800       444
    65.4000       440
    65.4200       502
    65.4400       430
    65.4600       446
    65.4800       466
    65.5000       458
    65.5200       444
    65.5400       474
    65.5600       436
    65.5800       506
    65.6000       428
    65.6200       450
    65.6400       480
    65.6600       494
    65.6800       454
    65.7000       480
    65.7200       452
    65.7400       476
    65.7600       466
    65.7800       490
    65.8000       452
    65.8200       496
    65.8400       474
    65.8600       466
    65.8800       460
    65.9000       490
    65.9200       440
    65.9400       446
    65.9600       498
    65.9800       506
    66.0000       444
    66.0200       494
    66.0400       482
    66.0600       430
    66.0800       424
    66.1000       490
    66.1200       454
    66.1400       496
    66.1600       450
    66.1800       458
    66.2000       458
    66.2200       436
    66.2400       514
    66.2600       444
    66.2800       474
    66.3000       452
    66.3200       438
    66.3400       504
    66.3600       484
    66.3800       438
    66.4000       416
    66.4200       422
    66.4400       456
    66.4600       452
    66.4800       456
    66.5000       460
    66.5200       446
    66.5400       436
    66.5600       472
    66.5800       478
    66.6000       462
    66.6200       428
    66.6400       476
    66.6600       416
    66.6800       464
    66.7000       426
    66.7200       464
    66.7400       448
    66.7600       440
    66.7800       462
    66.8000       462
    66.8200       434
    66.8400       462
    66.8600       434
    66.8800       468
    66.9000       448
    66.9200       410
    66.9400       412
    66.9600       440
    66.9800       470
    67.0000       436
    67.0200       418
    67.0400       460
    67.0600       382
    67.0800       472
    67.1000       458
    67.1200       454
    67.1400       420
    67.1600       444
    67.1800       454
    67.2000       454
    67.2200       416
    67.2400       442
    67.2600       442
    67.2800       424
    67.3000       442
    67.3200       392
    67.3400       418
    67.3600       468
    67.3800       414
    67.4000       426
    67.4200       426
    67.4400       484
    67.4600       418
    67.4800       438
    67.5000       422
    67.5200       440
    67.5400       414
    67.5600       470
    67.5800       464
    67.6000       454
    67.6200       432
    67.6400       446
    67.6600       440
    67.6800       464
    67.7000       450
    67.7200       422
    67.7400       406
    67.7600       410
    67.7800       390
    67.8000       440
    67.8200       436
    67.8400       470
    67.8600       438
    67.8800       410
    67.9000       466
    67.9200       452
    67.9400       436
    67.9600       464
    67.9800       404
    68.0000       428
    68.0200       406
    68.0400       414
    68.0600       484
    68.0800       422
    68.1000       456
    68.1200       420
    68.1400       446
    68.1600       404
    68.1800       428
    68.2000       420
    68.2200       412
    68.2400       416
    68.2600       436
    68.2800       442
    68.3000       428
    68.3200       454
    68.3400       416
    68.3600       420
    68.3800       434
    68.4000       468
    68.4200       414
    68.4400       430
    68.4600       444
    68.4800       414
    68.5000       410
    68.5200       380
    68.5400       458
    68.5600       432
    68.5800       438
    68.6000       410
    68.6200       444
    68.6400       460
    68.6600       428
    68.6800       404
    68.7000       436
    68.7200       418
    68.7400       434
    68.7600       452
    68.7800       424
    68.8000       414
    68.8200       456
    68.8400       414
    68.8600       438
    68.8800       404
    68.9000       426
    68.9200       404
    68.9400       480
    68.9600       422
    68.9800       486
    69.0000       432
    69.0200       436
    69.0400       472
    69.0600       422
    69.0800       456
    69.1000       400
    69.1200       376
    69.1400       410
    69.1600       432
    69.1800       424
    69.2000       448
    69.2200       406
    69.2400       422
    69.2600       464
    69.2800       444
    69.3000       468
    69.3200       518
    69.3400       388
    69.3600       430
    69.3800       420
    69.4000       424
    69.4200       396
    69.4400       386
    69.4600       444
    69.4800       424
    69.5000       436
    69.5200       404
    69.5400       458
    69.5600       438
    69.5800       406
    69.6000       418
    69.6200       442
    69.6400       442
    69.6600       402
    69.6800       440
    69.7000       422
    69.7200       408
    69.7400       456
    69.7600       434
    69.7800       442
    69.8000       444
    69.8200       432
    69.8400       426
    69.8600       398
    69.8800       410
    69.9000       440
    69.9200       398
    69.9400       406
    69.9600       420
    69.9800       448
    70.0000       424
