PDF#33-0893: QM=Star/Calculated; d=Other/Unknown; I=(Unknown)
Manganese Chromium Oxide
MnCrO4	
Radiation=CuKa1	Lambda=1.5406	Filter=
Calibration=	d-Cutoff=	I/Ic(RIR)=
Ref= Level-1 PDF

Crystal System=	Z=	mp=
Cell=	Pearson=
Density(c)=	Density(m)=	Mwt=	Vol=	
Ref= Ibid.

Strong Line: 3.13/X  2.42/6  1.63/4  2.42/4  2.12/2  1.63/2  1.56/2  1.31/2

d(A)     I(f)   I(v)  h  k  l  n^2  2-Theta   Theta  1/(2d)   2pi/d  
 3.130  100.0  100.0  1  1  0        28.493  14.247  0.1597  2.0074
 2.423   40.0   52.0  0  1  1        37.072  18.536  0.2064  2.5931
 2.416   60.0   78.0  1  0  1        37.184  18.592  0.2070  2.6007
 2.202    2.0    3.0  2  0  0        40.951  20.476  0.2271  2.8534
 2.121   20.0   30.0  1  1  1        42.590  21.295  0.2357  2.9624
 1.972    2.0    3.0  2  1  0        45.985  22.992  0.2535  3.1862
 1.635   20.0   38.0  1  2  1        56.214  28.107  0.3058  3.8429
 1.628   40.0   77.0  2  1  1        56.477  28.239  0.3071  3.8595
 1.562   15.0   30.0  2  2  0        59.094  29.547  0.3201  4.0225
 1.444   10.0   22.0  0  0  2        64.476  32.238  0.3463  4.3512
 1.393    2.0    4.0  3  1  0        67.141  33.571  0.3589  4.5105
 1.311   15.0   36.0  1  1  2        71.967  35.983  0.3814  4.7927
