PDF#44-0141: QM=Star/Calculated; d=Other/Unknown; I=(Unknown)
Manganese Oxide
MnO2	
Radiation=CuKa1	Lambda=1.5406	Filter=
Calibration=	d-Cutoff=	I/Ic(RIR)=
Ref= Level-1 PDF

Crystal System=	Z=	mp=
Cell=	Pearson=
Density(c)=	Density(m)=	Mwt=	Vol=	
Ref= Ibid.

Strong Line: 2.39/X  3.09/8  1.53/6  4.89/5  1.83/5  6.92/4  1.35/4  1.63/3

d(A)     I(f)   I(v)  h  k  l  n^2  2-Theta   Theta  1/(2d)   2pi/d  
 6.919   37.0   13.0  1  1  0        12.784   6.392  0.0723  0.9081
 4.895   53.0   26.0  2  0  0        18.107   9.054  0.1021  1.2836
 3.462    5.0    3.0  2  2  0        25.711  12.856  0.1444  1.8149
 3.093   82.0   63.0  3  1  0        28.841  14.421  0.1617  2.0314
 2.447   24.0   23.0  4  0  0        36.696  18.348  0.2043  2.5677
 2.395  100.0  100.0  2  1  1        37.522  18.761  0.2088  2.6235
 2.307    9.0    9.0  3  3  0        39.010  19.505  0.2167  2.7235
 2.188    5.0    5.0  4  2  0        41.225  20.613  0.2285  2.8717
 2.151   28.0   31.0  3  0  1        41.968  20.984  0.2325  2.9211
 1.969    2.0    2.0  3  2  1        46.037  23.018  0.2538  3.1896
 1.917    8.0   10.0  5  1  0        47.373  23.686  0.2608  3.2769
 1.827   50.0   66.0  4  1  1        49.864  24.932  0.2736  3.4385
 1.730    1.0    1.0  4  4  0        52.855  26.428  0.2889  3.6304
 1.630   29.0   43.0  6  0  0        56.372  28.186  0.3066  3.8528
 1.616   10.0   15.0  4  3  1        56.927  28.464  0.3094  3.8876
 1.534   58.0   91.0  5  2  1        60.274  30.137  0.3259  4.0954
 1.431   15.0   25.0  0  0  2        65.108  32.554  0.3493  4.3892
 1.401    1.0    2.0  1  1  2        66.691  33.346  0.3568  4.4838
 1.383    1.0    2.0  7  1  0        67.648  33.824  0.3613  4.5405
 1.374    5.0    9.0  2  0  2        68.185  34.092  0.3638  4.5722
 1.347   35.0   62.0  5  4  1        69.711  34.856  0.3710  4.6618
 1.323    1.0    2.0  2  2  2        71.189  35.595  0.3778  4.7478
 1.299    8.0   15.0  3  1  2        72.711  36.356  0.3848  4.8355
 1.284    3.0    6.0  7  3  0        73.700  36.850  0.3893  4.8919
 1.235    4.0    8.0  4  0  2        77.160  38.580  0.4048  5.0868
 1.216   10.0   20.0  3  3  2        78.588  39.294  0.4111  5.1658
 1.153    2.0    4.0  6  6  0        83.818  41.909  0.4336  5.4485
 1.147    3.0    6.0  5  1  2        84.348  42.174  0.4358  5.4765
 1.117    2.0    4.0  7  4  1        87.148  43.574  0.4474  5.6225
 1.075    9.0   20.0  6  0  2        91.462  45.731  0.4648  5.8410
 0.994    2.0    5.0  7  1  2       101.470  50.735  0.5026  6.3154
 0.984    1.0    2.0  6  4  2       102.905  51.452  0.5077  6.3795
 0.975    2.0    5.0  8  5  1       104.362  52.181  0.5128  6.4436
 0.932    6.0   15.0  2  1  3       111.406  55.703  0.5363  6.7387
 0.898    2.0    5.0  6  6  2       118.135  59.067  0.5568  6.9969
 0.885    5.0   14.0  4  1  3       120.913  60.456  0.5647  7.0964
